#Measurement data
#2022-07-14 13:51:55

#Time (days)	Power (W)	Current (A)
0.00001789	3.790000	0.049700
0.00003100	3.790000	0.049700
0.00004233	3.790000	0.049700
0.00005409	3.790000	0.049800
0.00006556	3.790000	0.049800
0.00007719	3.790000	0.049800
0.00008922	3.790000	0.049800
0.00010037	3.790000	0.049700
0.00011223	3.790000	0.049700
0.00012381	3.790000	0.049700
0.00013578	3.790000	0.049500
0.00014721	3.790000	0.049500
0.00015889	3.790000	0.049400
0.00017053	3.790000	0.049400
0.00018203	3.790000	0.049400
0.00019351	3.790000	0.049400
0.00020527	3.790000	0.049400
0.00021696	3.790000	0.049400
0.00022845	0.140000	0.024100
0.00024024	0.140000	0.024100
0.00025184	0.140000	0.024100
0.00026333	0.140000	0.024100
0.00027481	4.140000	0.053200
0.00028655	4.140000	0.053200
0.00029802	4.140000	0.053200
0.00030965	4.220000	0.053900
0.00032144	4.220000	0.053900
0.00033284	4.220000	0.053700
0.00034427	4.220000	0.053700
0.00035584	4.220000	0.053700
0.00036741	4.140000	0.053600
0.00037899	4.140000	0.053600
0.00039065	4.140000	0.053600
0.00040218	9.720000	0.105300
0.00041403	9.720000	0.105300
0.00042543	9.720000	0.105300
0.00043699	9.720000	0.105300
0.00044847	7.580000	0.087100
0.00046020	7.580000	0.087100
0.00047179	7.580000	0.087100
0.00048321	4.140000	0.054000
0.00049486	4.140000	0.054000
0.00050655	4.140000	0.053700
0.00051810	4.140000	0.053700
0.00052963	4.140000	0.053700
0.00054145	4.220000	0.053900
0.00055322	4.220000	0.053900
0.00056481	4.220000	0.053900
0.00057630	4.140000	0.054100
0.00058801	4.140000	0.054100
0.00059962	4.140000	0.054100
0.00061126	4.140000	0.054100
0.00062280	4.220000	0.054100
0.00063457	4.220000	0.054100
0.00064630	4.140000	0.053600
0.00065757	4.140000	0.053600
0.00066914	4.140000	0.053600
0.00068072	4.220000	0.054000
0.00069231	4.220000	0.054000
0.00070407	4.220000	0.054000
0.00071566	4.140000	0.054000
0.00072718	4.140000	0.054000
0.00073896	4.140000	0.054000
0.00075059	4.140000	0.053400
0.00076201	4.140000	0.053400
0.00077346	4.140000	0.053400
0.00078517	4.140000	0.053400
0.00079704	4.220000	0.053600
0.00080855	4.220000	0.053600
0.00082028	17.520000	0.175400
0.00083203	17.520000	0.175400
0.00084381	17.520000	0.175400
0.00085516	21.020000	0.198400
0.00086689	21.020000	0.198400
0.00087836	21.020000	0.198400
0.00089006	21.240000	0.202200
0.00090134	21.240000	0.202200
0.00091301	21.240000	0.202200
0.00092449	21.240000	0.202200
0.00093613	21.240000	0.202200
0.00094767	21.240000	0.202200
0.00095918	21.240000	0.202200
0.00097081	29.680000	0.245800
0.00098244	29.680000	0.245800
0.00099413	30.180000	0.246000
0.00100568	30.180000	0.246000
0.00101721	30.180000	0.246000
0.00102859	30.250000	0.245900
0.00104045	30.250000	0.245900
0.00105177	30.250000	0.245900
0.00106333	30.180000	0.245600
0.00107487	30.180000	0.245600
0.00108654	30.180000	0.245600
0.00109825	30.180000	0.245600
0.00110965	30.040000	0.245200
0.00112124	30.040000	0.245200
0.00113304	30.040000	0.245200
0.00114441	30.110000	0.244900
0.00115597	30.110000	0.244900
0.00116758	30.110000	0.244700
0.00117910	30.110000	0.244700
0.00119051	30.110000	0.244700
0.00120251	19.090000	0.181900
0.00121376	19.090000	0.181900
0.00122556	19.090000	0.181900
0.00123693	18.450000	0.181300
0.00124856	18.450000	0.181300
0.00126028	18.450000	0.181300
0.00127175	18.450000	0.181300
0.00128333	18.090000	0.180400
0.00129499	18.090000	0.180400
0.00130652	23.880000	0.216400
0.00131808	23.880000	0.216400
0.00132964	23.880000	0.216400
0.00134110	29.540000	0.243600
0.00135311	29.540000	0.243600
0.00136425	29.540000	0.243600
0.00137584	29.820000	0.243000
0.00138738	29.820000	0.243000
0.00139904	29.820000	0.243000
0.00141078	29.460000	0.240800
0.00142269	29.460000	0.240800
0.00143403	29.460000	0.240800
0.00144573	29.460000	0.240800
0.00145750	29.610000	0.240900
0.00146913	29.610000	0.240900
0.00148059	29.750000	0.241400
0.00149219	29.750000	0.241400
0.00150398	29.750000	0.241400
0.00151530	29.680000	0.241300
0.00152683	29.680000	0.241300
0.00153839	29.680000	0.241300
0.00155007	30.040000	0.242600
0.00156153	30.040000	0.242600
0.00157329	30.040000	0.242600
0.00158500	30.040000	0.242700
0.00159650	30.040000	0.242700
0.00160793	30.040000	0.242700
0.00161957	30.040000	0.242700
0.00163098	19.090000	0.181400
0.00164262	19.090000	0.181400
0.00165412	19.090000	0.181400
0.00166579	19.090000	0.181400
0.00167730	19.090000	0.181400
0.00168896	18.090000	0.180500
0.00170057	18.090000	0.180500
0.00171185	18.090000	0.180500
0.00172390	22.740000	0.207900
0.00173535	22.740000	0.207900
0.00174681	22.740000	0.207900
0.00175855	32.400000	0.251700
0.00177028	32.400000	0.251700
0.00178220	32.400000	0.251700
0.00179380	32.400000	0.251700
0.00180534	26.390000	0.221100
0.00181692	26.390000	0.221100
0.00182832	35.760000	0.272300
0.00184008	35.760000	0.272300
0.00185142	35.760000	0.272300
0.00186317	36.400000	0.274200
0.00187471	36.400000	0.274200
0.00188639	36.400000	0.274200
0.00189788	37.120000	0.276200
0.00190929	37.120000	0.276200
0.00192096	37.120000	0.276200
0.00193257	37.620000	0.277700
0.00194399	37.620000	0.277700
0.00195574	37.620000	0.277700
0.00196749	37.550000	0.276800
0.00197902	37.550000	0.276800
0.00199057	37.550000	0.276800
0.00200267	37.690000	0.276800
0.00201398	37.690000	0.276800
0.00202566	37.690000	0.276800
0.00203713	37.550000	0.276400
0.00204855	37.550000	0.276400
0.00206068	37.550000	0.276400
0.00207177	26.750000	0.218100
0.00208324	26.750000	0.218100
0.00209516	26.750000	0.218100
0.00210656	26.030000	0.216500
0.00211823	26.030000	0.216500
0.00212976	26.030000	0.216500
0.00214117	25.670000	0.216000
0.00215269	25.670000	0.216000
0.00216464	25.670000	0.216000
0.00217597	26.240000	0.220300
0.00218772	26.240000	0.220300
0.00219905	26.240000	0.220300
0.00221069	37.120000	0.275300
0.00222233	37.120000	0.275300
0.00223410	37.120000	0.275300
0.00224550	37.190000	0.275100
0.00225693	37.190000	0.275100
0.00226875	37.190000	0.275100
0.00228024	37.190000	0.275100
0.00229166	37.260000	0.274800
0.00230331	37.260000	0.274800
0.00231507	37.260000	0.275000
0.00232668	37.260000	0.275000
0.00233789	37.260000	0.275000
0.00234973	37.260000	0.274900
0.00236125	37.260000	0.274900
0.00237296	37.260000	0.274900
0.00238440	37.260000	0.274900
0.00239588	37.260000	0.274900
0.00240740	37.260000	0.274900
0.00241910	26.170000	0.215600
0.00243057	26.170000	0.215600
0.00244223	26.170000	0.215600
0.00245367	25.820000	0.215600
0.00246531	25.820000	0.214900
0.00247700	25.820000	0.214900
0.00248839	25.100000	0.213300
0.00250002	25.100000	0.213300
0.00251178	25.100000	0.213300
0.00252326	24.810000	0.211800
0.00253492	24.810000	0.211800
0.00254670	24.810000	0.211800
0.00255817	19.380000	0.180900
0.00256970	19.380000	0.180900
0.00258132	19.380000	0.180900
0.00259319	18.660000	0.181000
0.00260493	18.660000	0.181000
0.00261640	18.660000	0.181000
0.00262799	18.450000	0.181100
0.00263955	18.450000	0.181100
0.00265105	18.450000	0.181100
0.00266271	18.450000	0.181300
0.00267410	18.450000	0.181300
0.00268602	18.450000	0.181300
0.00269736	22.310000	0.205400
0.00270895	22.310000	0.205400
0.00272061	22.310000	0.205400
0.00273241	30.110000	0.246000
0.00274354	30.110000	0.246000
0.00275521	30.110000	0.246000
0.00276684	30.890000	0.246900
0.00277843	30.890000	0.246900
0.00278991	30.890000	0.246900
0.00280131	30.750000	0.246000
0.00281310	30.750000	0.246000
0.00282469	30.750000	0.246000
0.00283627	30.680000	0.245200
0.00284767	30.680000	0.245200
0.00285944	30.680000	0.245200
0.00287087	30.610000	0.244600
0.00288227	30.610000	0.244600
0.00289405	30.610000	0.244600
0.00290566	30.610000	0.244700
0.00291725	30.610000	0.244700
0.00292910	30.610000	0.244700
0.00294068	27.100000	0.226900
0.00295219	27.100000	0.226900
0.00296382	27.100000	0.226900
0.00297542	19.240000	0.182900
0.00298708	19.240000	0.182900
0.00299867	19.240000	0.182900
0.00301029	18.590000	0.181500
0.00302181	18.590000	0.181500
0.00303389	18.590000	0.181500
0.00304591	18.380000	0.180600
0.00305697	18.380000	0.180600
0.00306877	18.380000	0.180600
0.00307985	18.310000	0.180100
0.00309157	18.310000	0.180100
0.00310316	18.310000	0.180100
0.00311487	18.310000	0.180100
0.00312646	18.310000	0.180100
0.00313803	18.310000	0.180100
0.00314958	21.670000	0.196700
0.00316096	21.670000	0.196700
0.00317274	21.670000	0.196700
0.00318451	21.950000	0.198200
0.00319605	21.950000	0.198200
0.00320775	21.950000	0.198200
0.00321939	18.590000	0.182900
0.00323130	18.590000	0.182900
0.00324288	18.590000	0.182900
0.00325444	18.590000	0.183000
0.00326583	18.590000	0.183000
0.00327760	18.590000	0.183000
0.00328927	18.590000	0.183000
0.00330084	18.590000	0.183000
0.00331233	18.590000	0.183000
0.00332387	40.340000	0.289300
0.00333558	40.340000	0.289300
0.00334685	40.340000	0.289300
0.00335870	30.110000	0.239000
0.00337046	30.110000	0.239000
0.00338203	30.110000	0.239000
0.00339377	34.400000	0.261500
0.00340517	34.400000	0.261500
0.00341677	34.400000	0.261500
0.00342828	32.400000	0.250300
0.00343997	32.400000	0.250300
0.00345144	27.680000	0.215800
0.00346319	27.680000	0.215800
0.00347488	27.680000	0.215800
0.00348650	27.680000	0.215800
0.00349833	15.230000	0.083400
0.00350971	15.230000	0.083400
0.00352116	15.230000	0.083400
0.00353282	15.300000	0.083600
0.00354444	15.300000	0.083600
0.00355612	15.300000	0.083600
0.00356744	15.300000	0.083400
0.00357917	15.300000	0.083400
0.00359066	15.300000	0.083400
0.00360222	15.370000	0.083600
0.00361405	15.370000	0.083600
0.00362539	15.300000	0.083300
0.00363698	15.300000	0.083300
0.00364856	15.300000	0.083300
0.00366016	15.300000	0.083300
0.00367193	15.300000	0.083200
0.00368346	15.300000	0.083200
0.00369493	15.300000	0.083200
0.00370625	15.230000	0.083300
0.00371804	15.230000	0.083300
0.00372972	15.230000	0.083300
0.00374120	15.230000	0.083000
0.00375282	15.230000	0.083000
0.00376459	15.230000	0.083100
0.00377584	15.230000	0.083100
0.00378745	15.230000	0.083100
0.00379896	15.230000	0.083100
0.00381053	15.300000	0.082800
0.00382240	15.300000	0.082800
0.00383394	15.300000	0.082800
0.00384537	15.300000	0.082800
0.00385679	15.300000	0.082800
0.00386874	15.300000	0.082800
0.00388019	15.230000	0.082900
0.00389164	15.230000	0.082900
0.00390325	15.230000	0.082900
0.00391483	15.160000	0.082700
0.00392637	15.160000	0.082700
0.00393787	15.160000	0.082600
0.00394971	15.160000	0.082600
0.00396106	15.160000	0.082600
0.00397270	15.160000	0.082600
0.00398422	15.090000	0.082300
0.00399583	15.090000	0.082300
0.00400740	15.090000	0.082300
0.00401895	15.160000	0.082700
0.00403050	15.160000	0.082700
0.00404205	15.160000	0.082700
0.00405358	15.230000	0.082800
0.00406500	15.230000	0.082800
0.00407668	15.230000	0.082800
0.00408836	15.230000	0.082500
0.00409985	15.230000	0.082500
0.00411157	15.300000	0.082400
0.00412303	15.300000	0.082400
0.00413478	15.300000	0.082400
0.00414623	15.300000	0.082400
0.00415803	15.300000	0.082600
0.00416958	15.300000	0.082600
0.00418127	15.300000	0.082600
0.00419244	15.300000	0.082200
0.00420417	15.300000	0.082200
0.00421569	15.300000	0.082200
0.00422726	34.400000	0.223100
0.00423907	34.400000	0.223100
0.00425052	34.400000	0.223100
0.00426226	26.960000	0.172800
0.00427370	26.960000	0.172800
0.00428554	40.190000	0.258900
0.00429689	40.190000	0.258900
0.00430848	40.190000	0.258900
0.00432008	40.190000	0.258900
0.00433175	38.760000	0.252300
0.00434329	38.760000	0.252300
0.00435483	38.760000	0.252300
0.00436659	38.120000	0.248000
0.00437802	38.120000	0.248000
0.00438969	38.120000	0.248000
0.00440119	37.900000	0.245000
0.00441291	37.900000	0.245000
0.00442456	39.620000	0.257900
0.00443655	39.620000	0.257900
0.00444753	39.620000	0.257900
0.00445906	38.330000	0.250200
0.00447087	38.330000	0.250200
0.00448218	38.330000	0.250200
0.00449389	38.330000	0.250200
0.00450541	37.830000	0.250800
0.00451694	37.830000	0.250800
0.00452866	37.830000	0.250800
0.00454013	39.120000	0.258700
0.00455167	39.120000	0.258700
0.00456344	39.120000	0.258700
0.00457487	39.120000	0.258700
0.00458638	39.120000	0.258700
0.00459797	29.180000	0.198900
0.00460950	29.180000	0.198900
0.00462120	29.180000	0.198900
0.00463280	29.180000	0.198900
0.00464421	15.300000	0.082200
0.00465579	15.300000	0.082200
0.00466755	15.300000	0.082200
0.00467894	13.870000	0.114900
0.00469069	13.870000	0.114900
0.00470227	13.870000	0.114900
0.00471387	16.450000	0.156100
0.00472551	16.450000	0.156100
0.00473713	16.450000	0.156100
0.00474889	39.480000	0.329100
0.00476016	39.480000	0.329100
0.00477181	38.980000	0.319900
0.00478356	38.980000	0.319900
0.00479497	38.980000	0.319900
0.00480656	38.980000	0.319900
0.00481804	2060.860000	8.692700
0.00482980	2060.860000	8.692700
0.00484124	2060.860000	8.692700
0.00485282	2046.480000	8.655700
0.00486434	2046.480000	8.655700
0.00487631	2046.480000	8.655700
0.00488758	38.830000	0.313800
0.00489939	38.830000	0.313800
0.00491052	38.830000	0.313800
0.00492249	42.550000	0.335800
0.00493412	42.550000	0.335800
0.00494569	43.200000	0.338800
0.00495741	43.200000	0.338800
0.00496910	43.200000	0.338800
0.00498058	43.200000	0.338800
0.00499206	40.260000	0.311200
0.00500365	40.260000	0.311200
0.00501522	40.260000	0.311200
0.00502685	66.230000	0.554300
0.00503838	66.230000	0.554300
0.00504991	66.230000	0.554300
0.00506152	200.480000	2.335900
0.00507303	200.480000	2.335900
0.00508472	200.480000	2.335900
0.00509639	2089.610000	8.832000
0.00510811	2089.610000	8.832000
0.00511948	2087.610000	8.816900
0.00513118	2087.610000	8.816900
0.00514299	2087.610000	8.816900
0.00515465	2087.610000	8.816900
0.00516604	2083.750000	8.802400
0.00517763	2083.750000	8.802400
0.00518926	2083.750000	8.802400
0.00520057	2072.880000	8.755700
0.00521218	2072.880000	8.755700
0.00522405	2072.880000	8.755700
0.00523578	2063.150000	8.700200
0.00524751	2063.150000	8.700200
0.00525928	2061.790000	8.706500
0.00527103	2061.790000	8.706500
0.00528271	2061.790000	8.706500
0.00529450	2061.790000	8.706500
0.00530583	2061.790000	8.706500
0.00531737	2061.790000	8.706500
0.00532888	2061.790000	8.706500
0.00534060	2067.080000	8.716400
0.00535213	2067.080000	8.716400
0.00536392	2067.080000	8.716400
0.00537545	2061.430000	8.703400
0.00538723	2061.430000	8.703400
0.00539878	2061.430000	8.703400
0.00541063	2055.070000	8.680800
0.00542206	2055.070000	8.680800
0.00543373	2079.030000	8.798800
0.00544534	2079.030000	8.798800
0.00545693	2079.030000	8.798800
0.00546844	2079.460000	8.801400
0.00548013	2079.460000	8.801400
0.00549184	2079.460000	8.801400
0.00550319	2079.460000	8.801400
0.00551598	2068.090000	8.778600
0.00552648	2068.090000	8.778600
0.00553809	2068.090000	8.778600
0.00555003	2064.370000	8.768800
0.00556139	2064.370000	8.768800
0.00557291	2064.370000	8.768800
0.00558449	2042.190000	8.664700
0.00559613	2042.190000	8.664700
0.00560784	2039.260000	8.651600
0.00561946	2039.260000	8.651600
0.00563104	2039.260000	8.651600
0.00564274	2048.770000	8.679000
0.00565428	2048.770000	8.679000
0.00566610	2048.770000	8.679000
0.00567762	2048.770000	8.679000
0.00568942	2046.060000	8.673100
0.00570079	2046.060000	8.673100
0.00571263	2046.060000	8.673100
0.00572412	2060.000000	8.702200
0.00573576	2060.000000	8.702200
0.00574727	2060.000000	8.702200
0.00575892	2058.500000	8.696600
0.00577045	2058.500000	8.696600
0.00578216	2048.700000	8.662300
0.00579373	2048.700000	8.662300
0.00580542	2048.700000	8.662300
0.00581712	2083.460000	8.804000
0.00582863	2083.460000	8.804000
0.00584035	2083.460000	8.804000
0.00585163	2083.460000	8.804000
0.00586350	2090.760000	8.819900
0.00587524	2090.760000	8.819900
0.00588659	2090.760000	8.819900
0.00589818	2089.900000	8.818400
0.00590955	2089.900000	8.818400
0.00592134	2089.260000	8.816800
0.00593315	2089.260000	8.816800
0.00594497	2089.260000	8.816800
0.00595644	2090.330000	8.819100
0.00596788	2090.330000	8.819100
0.00597947	2090.330000	8.819100
0.00599110	2087.970000	8.814000
0.00600264	2087.970000	8.814000
0.00601411	2087.970000	8.814000
0.00602584	2087.970000	8.814000
0.00603740	2087.970000	8.814000
0.00604898	2087.970000	8.814000
0.00606056	2087.970000	8.814000
0.00607209	2085.610000	8.808200
0.00608373	2085.610000	8.808200
0.00609569	2087.830000	8.813000
0.00610711	2087.830000	8.813000
0.00611873	2087.830000	8.813000
0.00613060	2084.540000	8.807400
0.00614222	2084.540000	8.807400
0.00615356	2084.540000	8.807400
0.00616519	2085.750000	8.809900
0.00617685	2085.750000	8.809900
0.00618828	2085.750000	8.809900
0.00619994	2085.750000	8.809900
0.00621162	2082.610000	8.803000
0.00622311	2082.610000	8.803000
0.00623475	2082.610000	8.803000
0.00624624	2024.740000	8.684600
0.00625811	2024.740000	8.684600
0.00626931	2025.890000	8.689000
0.00628098	2025.890000	8.689000
0.00629256	2025.890000	8.689000
0.00630422	2023.950000	8.686100
0.00631584	2023.950000	8.686100
0.00632725	2023.950000	8.686100
0.00633873	2016.660000	8.669900
0.00635057	2016.660000	8.669900
0.00636191	2016.660000	8.669900
0.00637347	2016.660000	8.669900
0.00638502	2014.370000	8.665300
0.00639671	2014.370000	8.665300
0.00640851	2014.370000	8.665300
0.00642000	2014.370000	8.665200
0.00643162	2014.370000	8.665200
0.00644325	2014.370000	8.665200
0.00645500	2014.370000	8.665200
0.00646666	2014.370000	8.665200
0.00647846	2020.310000	8.678700
0.00648979	2020.310000	8.678700
0.00650162	2020.310000	8.678700
0.00651300	2024.960000	8.688100
0.00652446	2024.960000	8.688100
0.00653631	2024.960000	8.688100
0.00654775	2024.960000	8.688100
0.00655931	2026.390000	8.690500
0.00657094	2026.390000	8.690500
0.00658257	2028.890000	8.695100
0.00659400	2028.890000	8.695100
0.00660568	2028.890000	8.695100
0.00661744	2024.960000	8.687100
0.00662899	2024.960000	8.687100
0.00664102	2024.960000	8.687100
0.00665231	2022.020000	8.681100
0.00666414	2022.020000	8.681100
0.00667567	2022.020000	8.681100
0.00668733	2015.660000	8.667900
0.00669897	2015.660000	8.667900
0.00671045	2015.660000	8.667900
0.00672183	2015.660000	8.667900
0.00673348	2012.220000	8.661000
0.00674510	2012.220000	8.661000
0.00675671	2000.710000	8.637100
0.00676836	2000.710000	8.637100
0.00677990	2000.710000	8.637100
0.00679149	1995.990000	8.626600
0.00680317	1995.990000	8.626600
0.00681478	1995.990000	8.626600
0.00682626	1991.050000	8.616700
0.00683792	1991.050000	8.616700
0.00684940	1991.050000	8.616700
0.00686127	1991.050000	8.616700
0.00687279	2002.000000	8.640100
0.00688428	2002.000000	8.640100
0.00689579	2006.790000	8.640100
0.00690747	2006.790000	8.649400
0.00691896	2006.790000	8.649400
0.00693079	2008.500000	8.652900
0.00694218	2008.500000	8.652900
0.00695360	2008.500000	8.652900
0.00696517	2027.890000	8.692500
0.00697691	2027.890000	8.692500
0.00698853	2027.890000	8.692500
0.00700019	2028.960000	8.695000
0.00701154	2028.960000	8.695000
0.00702317	2028.960000	8.695000
0.00703480	2028.960000	8.695000
0.00704616	2035.610000	8.710100
0.00705777	2035.610000	8.710100
0.00706949	2032.040000	8.702200
0.00708094	2032.040000	8.702200
0.00709273	2032.040000	8.702200
0.00710431	2030.390000	8.698000
0.00711610	2030.390000	8.698000
0.00712743	2030.390000	8.698000
0.00713903	2030.610000	8.698500
0.00715064	2030.610000	8.698500
0.00716223	2030.610000	8.698500
0.00717374	2025.530000	8.688400
0.00718559	2025.530000	8.688400
0.00719733	2025.530000	8.688400
0.00720895	2025.530000	8.688400
0.00722051	2009.940000	8.617000
0.00723206	2009.940000	8.617000
0.00724417	1998.560000	8.567800
0.00725541	1998.560000	8.567800
0.00726749	1998.560000	8.567800
0.00727860	2004.280000	8.587200
0.00729036	2004.280000	8.587200
0.00730197	2004.280000	8.587200
0.00731351	2002.070000	8.583000
0.00732495	2002.070000	8.583000
0.00733664	2002.070000	8.583000
0.00734819	1997.420000	8.572800
0.00735964	1997.420000	8.572800
0.00737148	1997.420000	8.572800
0.00738286	1991.620000	8.572800
0.00739447	1991.620000	8.560700
0.00740594	1991.620000	8.560700
0.00741750	1986.190000	8.549300
0.00742910	1986.190000	8.549300
0.00744071	1986.190000	8.549300
0.00745231	1976.680000	8.524800
0.00746420	1976.680000	8.524800
0.00747578	1976.680000	8.524800
0.00748742	1977.180000	8.511300
0.00749922	1977.180000	8.511300
0.00751080	1977.180000	8.511300
0.00752233	1977.180000	8.511300
0.00753394	2020.950000	8.662900
0.00754553	2020.950000	8.662900
0.00755725	2017.870000	8.667500
0.00756874	2017.870000	8.667500
0.00758027	2017.870000	8.667500
0.00759211	2023.880000	8.679500
0.00760406	2023.880000	8.679500
0.00761546	2023.880000	8.679500
0.00762715	2025.240000	8.682200
0.00763852	2025.240000	8.682200
0.00765034	2025.240000	8.682200
0.00766188	2026.460000	8.685100
0.00767324	2026.460000	8.685100
0.00768506	2026.460000	8.685100
0.00769714	2026.460000	8.685100
0.00770792	2020.520000	8.672000
0.00771949	2020.520000	8.672000
0.00773146	2026.240000	8.684300
0.00774279	2026.240000	8.684300
0.00775450	2026.240000	8.684300
0.00776617	2019.660000	8.669900
0.00777769	2019.660000	8.669900
0.00778911	2019.660000	8.669900
0.00780089	2014.580000	8.659300
0.00781243	2014.580000	8.659300
0.00782403	2014.580000	8.659300
0.00783560	2025.740000	8.683000
0.00784731	2025.740000	8.683000
0.00785883	2025.740000	8.683000
0.00787047	2007.500000	8.601100
0.00788214	2007.500000	8.601100
0.00789397	2007.500000	8.601100
0.00790528	1988.620000	8.539300
0.00791670	1988.620000	8.539300
0.00792844	1988.620000	8.539300
0.00794017	1988.910000	8.553300
0.00795160	1988.910000	8.553300
0.00796315	1988.910000	8.553300
0.00797476	1987.910000	8.552400
0.00798632	1987.910000	8.552400
0.00799778	1987.910000	8.552400
0.00800931	1989.120000	8.555100
0.00802120	1989.120000	8.555100
0.00803265	1989.120000	8.555100
0.00804422	2004.070000	8.586100
0.00805576	2004.070000	8.586100
0.00806720	2004.070000	8.586100
0.00807902	2007.500000	8.593100
0.00809030	2007.500000	8.593100
0.00810211	2007.500000	8.593100
0.00811380	2009.790000	8.598800
0.00812527	2009.790000	8.598800
0.00813679	2009.790000	8.598800
0.00814826	2002.850000	8.568000
0.00816000	2002.850000	8.568000
0.00817153	2002.850000	8.568000
0.00818302	2002.850000	8.568000
0.00819446	2025.380000	8.684100
0.00820626	2025.380000	8.684100
0.00821809	2023.450000	8.684300
0.00822970	2023.450000	8.684300
0.00824124	2023.450000	8.684300
0.00825292	2012.580000	8.662300
0.00826478	2012.580000	8.662300
0.00827589	2012.580000	8.662300
0.00828747	2002.280000	8.640300
0.00829916	2002.280000	8.640300
0.00831072	2002.280000	8.640300
0.00832270	2003.350000	8.642600
0.00833413	2003.350000	8.642600
0.00834571	1999.780000	8.635900
0.00835708	1999.780000	8.635900
0.00836892	1999.780000	8.635900
0.00838061	1999.780000	8.635900
0.00839213	2004.710000	8.645600
0.00840432	2004.710000	8.645600
0.00841527	2004.710000	8.645600
0.00842686	2004.500000	8.644800
0.00843845	2004.500000	8.644800
0.00845002	2004.500000	8.644800
0.00846169	2023.170000	8.683400
0.00847313	2023.170000	8.683400
0.00848485	2023.170000	8.683400
0.00849652	2026.460000	8.689300
0.00850803	2026.460000	8.689300
0.00851953	2026.460000	8.689300
0.00853127	2022.810000	8.681800
0.00854278	2022.810000	8.681800
0.00855432	2022.810000	8.681800
0.00856591	2016.730000	8.669400
0.00857762	2016.730000	8.669400
0.00858904	2016.730000	8.669400
0.00860104	2022.600000	8.681100
0.00861214	2022.600000	8.681100
0.00862373	2022.600000	8.681100
0.00863685	2021.240000	8.678000
0.00864832	2021.240000	8.678000
0.00865848	2022.600000	8.681000
0.00867012	2022.600000	8.681000
0.00868175	2022.600000	8.681000
0.00869341	2022.600000	8.681000
0.00870534	2023.810000	8.683700
0.00871667	2023.810000	8.683700
0.00872855	2023.810000	8.683700
0.00873988	2021.310000	8.678500
0.00875138	2021.310000	8.678500
0.00876302	2021.310000	8.678500
0.00877472	2021.020000	8.678400
0.00878628	2021.020000	8.678400
0.00879816	2021.020000	8.678400
0.00880983	2022.090000	8.680200
0.00882133	2022.090000	8.680200
0.00883300	2022.670000	8.681200
0.00884454	2022.670000	8.681200
0.00885628	2022.670000	8.681200
0.00886774	2022.670000	8.681200
0.00887934	1998.350000	8.601000
0.00889078	1998.350000	8.601000
0.00890237	1998.350000	8.601000
0.00891400	1980.470000	8.522800
0.00892571	1980.470000	8.522800
0.00893753	1980.470000	8.522800
0.00894892	1981.250000	8.534900
0.00896042	1981.250000	8.534900
0.00897230	1981.250000	8.534900
0.00898395	1985.550000	8.547200
0.00899559	1985.550000	8.547200
0.00900723	1989.190000	8.554600
0.00901891	1989.190000	8.554600
0.00903021	1989.190000	8.554600
0.00904201	1989.190000	8.554600
0.00905350	1999.210000	8.575600
0.00906497	1999.210000	8.575600
0.00907686	1999.210000	8.575600
0.00908833	2001.500000	8.580500
0.00910001	2001.500000	8.580500
0.00911154	2001.500000	8.580500
0.00912309	2009.010000	8.596600
0.00913464	2009.010000	8.596600
0.00914618	2003.710000	8.596600
0.00915806	2003.710000	8.565100
0.00916956	2003.710000	8.565100
0.00918110	2024.240000	8.667500
0.00919265	2024.240000	8.667500
0.00920435	2024.240000	8.667500
0.00921582	2024.240000	8.667500
0.00922749	2026.390000	8.684000
0.00923904	2026.390000	8.684000
0.00925058	2026.390000	8.684000
0.00926219	2017.230000	8.665000
0.00927369	2017.230000	8.665000
0.00928554	2017.230000	8.665000
0.00929706	2013.370000	8.657200
0.00930868	2013.370000	8.657200
0.00932023	2021.880000	8.675100
0.00933182	2021.880000	8.675100
0.00934356	2021.880000	8.675100
0.00935532	2018.020000	8.668200
0.00936692	2018.020000	8.668200
0.00937868	2018.020000	8.668200
0.00939025	2018.020000	8.668200
0.00940183	2014.800000	8.661100
0.00941352	2014.800000	8.661100
0.00942510	2014.800000	8.661100
0.00943675	2009.580000	8.649400
0.00944851	2009.580000	8.649400
0.00945992	2009.580000	8.649400
0.00947146	2019.730000	8.670900
0.00948303	2019.730000	8.670900
0.00949493	2022.380000	8.676100
0.00950668	2022.380000	8.676100
0.00951774	2022.380000	8.676100
0.00952947	2022.380000	8.676100
0.00954090	2018.880000	8.664300
0.00955265	2018.880000	8.664300
0.00956446	2018.880000	8.664300
0.00957575	1996.920000	8.555100
0.00958727	1996.920000	8.555100
0.00959902	1996.920000	8.555100
0.00961067	2000.780000	8.572600
0.00962198	2000.780000	8.572600
0.00963350	1999.490000	8.576100
0.00964538	1999.490000	8.576100
0.00965684	1999.490000	8.576100
0.00966847	2003.500000	8.584400
0.00968022	2003.500000	8.584400
0.00969192	2003.500000	8.584400
0.00970350	2003.500000	8.584400
0.00971497	2005.070000	8.587500
0.00972647	2005.070000	8.587500
0.00973822	2005.070000	8.587500
0.00974993	2009.510000	8.596700
0.00976164	2009.510000	8.596700
0.00977340	2009.510000	8.596700
0.00978495	2010.940000	8.600400
0.00979666	2010.940000	8.600400
0.00980809	2007.430000	8.585900
0.00981992	2007.430000	8.585900
0.00983155	2007.430000	8.585900
0.00984301	2002.210000	8.567400
0.00985458	2002.210000	8.567400
0.00986626	2002.210000	8.567400
0.00987780	2002.210000	8.567400
0.00988927	2026.600000	8.689400
0.00990090	2026.600000	8.689400
0.00991256	2026.600000	8.689400
0.00992459	2030.180000	8.697800
0.00993591	2030.180000	8.697800
0.00994753	2030.180000	8.697800
0.00995902	2027.170000	8.691300
0.00997053	2027.170000	8.691300
0.00998226	2020.520000	8.677700
0.00999362	2020.520000	8.677700
0.01000527	2020.520000	8.677700
0.01001721	2021.670000	8.680800
0.01002862	2021.670000	8.680800
0.01004014	2021.670000	8.680800
0.01005172	2021.670000	8.680800
0.01006341	2020.310000	8.678900
0.01007491	2020.310000	8.678900
0.01008655	2020.310000	8.678900
0.01009823	2012.150000	8.661400
0.01010992	2012.150000	8.661400
0.01012159	1998.920000	8.634400
0.01013328	1998.920000	8.634400
0.01014463	1998.920000	8.634400
0.01015618	1995.060000	8.626400
0.01016780	1995.060000	8.626400
0.01017940	1995.060000	8.626400
0.01019100	1988.910000	8.613800
0.01020273	1988.910000	8.613800
0.01021424	1988.910000	8.613800
0.01022594	1988.910000	8.613800
0.01023726	1988.190000	8.612200
0.01024872	1988.190000	8.612200
0.01026054	1988.190000	8.612200
0.01027213	2003.710000	8.642900
0.01028359	2003.710000	8.642900
0.01029503	2013.370000	8.662900
0.01030664	2013.370000	8.662900
0.01031824	2013.370000	8.662900
0.01032979	2015.510000	8.667400
0.01034147	2015.510000	8.667400
0.01035319	2015.510000	8.667400
0.01036491	2015.510000	8.667400
0.01037694	2016.090000	8.668000
0.01038847	2016.090000	8.668000
0.01039991	2016.090000	8.668000
0.01041145	2012.800000	8.661000
0.01042317	2012.800000	8.661000
0.01043469	2012.800000	8.661000
0.01044612	2014.870000	8.665800
0.01045779	2014.870000	8.665800
0.01046926	2020.090000	8.676400
0.01048090	2020.090000	8.676400
0.01049249	2020.090000	8.676400
0.01050435	2019.090000	8.674300
0.01051590	2019.090000	8.674300
0.01052751	2019.090000	8.674300
0.01053919	2019.090000	8.674300
0.01055078	2022.810000	8.682700
0.01056226	2022.810000	8.682700
0.01057422	2022.810000	8.682700
0.01058572	2003.780000	8.569600
0.01059718	2003.780000	8.569600
0.01060882	2005.000000	8.582300
0.01062043	2005.000000	8.582300
0.01063194	2005.000000	8.582300
0.01064351	2001.780000	8.580900
0.01065512	2001.780000	8.580900
0.01066662	2001.780000	8.580900
0.01067822	1998.630000	8.574400
0.01068978	1998.630000	8.574400
0.01070140	1998.630000	8.574400
0.01071301	1998.630000	8.574400
0.01072441	1972.810000	8.519900
0.01073617	1972.810000	8.519900
0.01074773	1972.810000	8.519900
0.01075926	1968.810000	8.511700
0.01077112	1968.810000	8.511700
0.01078250	1974.170000	8.523700
0.01079438	1974.170000	8.523700
0.01080586	1974.170000	8.523700
0.01081744	1977.960000	8.523100
0.01082899	1977.960000	8.523100
0.01084064	1977.960000	8.523100
0.01085212	1977.960000	8.523100
0.01086382	1996.770000	8.553900
0.01087557	1996.770000	8.553900
0.01088709	1996.770000	8.553900
0.01089881	2022.380000	8.674800
0.01091037	2022.380000	8.674800
0.01092234	2023.670000	8.678400
0.01093420	2023.670000	8.678400
0.01094542	2023.670000	8.678400
0.01095711	2018.090000	8.666800
0.01096891	2018.090000	8.666800
0.01098031	2018.090000	8.666800
0.01099227	2006.140000	8.642100
0.01100374	2006.140000	8.642100
0.01101527	2006.140000	8.642100
0.01102693	2006.140000	8.642100
0.01103838	1997.060000	8.623700
0.01104999	1997.060000	8.623700
0.01106168	1997.060000	8.623700
0.01107314	1986.330000	8.601600
0.01108470	1986.330000	8.601600
0.01109623	1986.050000	8.601200
0.01110795	1986.050000	8.601200
0.01111940	1986.050000	8.601200
0.01113100	1995.770000	8.621200
0.01114257	1995.770000	8.621200
0.01115448	1995.770000	8.621200
0.01116605	2010.150000	8.649900
0.01117769	2010.150000	8.649900
0.01118918	2010.150000	8.649900
0.01120087	2010.150000	8.649900
0.01121233	2017.020000	8.664600
0.01122419	2017.020000	8.664600
0.01123556	1995.840000	8.664600
0.01124711	1995.840000	8.563800
0.01125874	1995.840000	8.563800
0.01127028	1992.700000	8.552300
0.01128178	1992.700000	8.552300
0.01129352	1992.700000	8.552300
0.01130502	1994.990000	8.566000
0.01131667	1994.990000	8.566000
0.01132808	1994.990000	8.566000
0.01133963	1989.760000	8.555300
0.01135127	1989.760000	8.555300
0.01136310	1989.760000	8.555300
0.01137435	1989.760000	8.555300
0.01138602	2002.570000	8.582200
0.01139751	2002.570000	8.582200
0.01140942	2006.430000	8.590700
0.01142059	2006.430000	8.590700
0.01143216	2006.430000	8.590700
0.01144399	2003.780000	8.584800
0.01145545	2003.780000	8.584800
0.01146700	2003.780000	8.584800
0.01147852	2002.710000	8.578500
0.01149021	2002.710000	8.578500
0.01150188	2002.710000	8.578500
0.01151358	1996.700000	8.555900
0.01152500	1996.700000	8.555900
0.01153646	1996.700000	8.555900
0.01154828	1996.700000	8.555900
0.01155964	2019.020000	8.672800
0.01157115	2019.020000	8.672800
0.01158292	2010.870000	8.657100
0.01159446	2010.870000	8.657100
0.01160588	2010.870000	8.657100
0.01161743	2012.080000	8.659300
0.01162909	2012.080000	8.659300
0.01164056	2012.080000	8.659300
0.01165212	2004.930000	8.644500
0.01166383	2004.930000	8.644500
0.01167541	2004.930000	8.644500
0.01168696	2004.930000	8.644500
0.01169840	2000.490000	8.635700
0.01171002	2000.490000	8.635700
0.01172168	2000.490000	8.635700
0.01173337	2000.920000	8.636500
0.01174476	2000.920000	8.636500
0.01175642	2001.640000	8.637700
0.01176809	2001.640000	8.637700
0.01177948	2001.640000	8.637700
0.01179090	2007.360000	8.650000
0.01180270	2007.360000	8.650000
0.01181424	2007.360000	8.650000
0.01182579	2025.380000	8.687400
0.01183745	2025.380000	8.687400
0.01184896	2025.380000	8.687400
0.01186056	2025.380000	8.687400
0.01187218	2025.600000	8.687900
0.01188369	2025.600000	8.687900
0.01189520	2023.100000	8.682200
0.01190687	2023.100000	8.682200
0.01191845	2023.100000	8.682200
0.01193008	2019.880000	8.675300
0.01194166	2019.880000	8.675300
0.01195313	2019.880000	8.675300
0.01196472	2020.590000	8.676900
0.01197623	2020.590000	8.676900
0.01198780	2020.590000	8.676900
0.01199968	2014.870000	8.665200
0.01201110	2014.870000	8.665200
0.01202251	2014.870000	8.665200
0.01203429	2014.870000	8.665200
0.01204565	2010.360000	8.657400
0.01206023	2010.360000	8.657400
0.01206978	2027.890000	8.697900
0.01208056	2027.890000	8.697900
0.01209201	2027.890000	8.697900
0.01210366	2025.530000	8.689700
0.01211516	2025.530000	8.689700
0.01212693	2025.530000	8.689700
0.01213852	2015.800000	8.669500
0.01214983	2015.800000	8.669500
0.01216159	2015.800000	8.669500
0.01217295	2015.800000	8.669500
0.01218470	2022.380000	8.682600
0.01219622	2022.380000	8.682600
0.01220767	2024.810000	8.682600
0.01221946	2024.810000	8.686900
0.01223094	2024.810000	8.686900
0.01224243	2006.220000	8.600200
0.01225410	2006.220000	8.600200
0.01226571	2006.220000	8.600200
0.01227720	2004.210000	8.577600
0.01228887	2004.210000	8.577600
0.01230038	2004.210000	8.577600
0.01231177	2007.650000	8.593300
0.01232366	2007.650000	8.593300
0.01233551	2007.650000	8.593300
0.01234671	2007.650000	8.593300
0.01235819	2004.640000	8.587100
0.01236986	2004.640000	8.587100
0.01238130	1998.920000	8.575200
0.01239303	1998.920000	8.575200
0.01240446	1998.920000	8.575200
0.01241616	1998.130000	8.573300
0.01242769	1998.130000	8.573300
0.01243914	1998.130000	8.573300
0.01245076	1996.060000	8.569300
0.01246251	1996.060000	8.569300
0.01247406	1996.060000	8.569300
0.01248552	1997.130000	8.569000
0.01249701	1997.130000	8.569000
0.01250878	1997.130000	8.569000
0.01252042	1997.130000	8.569000
0.01253184	1995.560000	8.550600
0.01254329	1995.560000	8.550600
0.01255494	2022.450000	8.674100
0.01256650	2022.450000	8.674100
0.01257808	2022.450000	8.674100
0.01258979	2023.310000	8.678700
0.01260131	2023.310000	8.678700
0.01261292	2023.310000	8.678700
0.01262446	2024.450000	8.681400
0.01263618	2024.450000	8.681400
0.01264753	2024.450000	8.681400
0.01265926	2024.450000	8.681400
0.01267081	2025.530000	8.684200
0.01268243	2025.530000	8.684200
0.01269424	2020.590000	8.684200
0.01270587	2020.590000	8.673800
0.01271750	2020.590000	8.673800
0.01272912	2025.670000	8.684600
0.01274076	2025.670000	8.684600
0.01275245	2025.670000	8.684600
0.01276390	2021.880000	8.675700
0.01277546	2021.880000	8.675700
0.01278681	2021.880000	8.675700
0.01279839	2016.940000	8.665400
0.01281045	2016.940000	8.665400
0.01282178	2016.940000	8.665400
0.01283355	2016.940000	8.665400
0.01284486	2012.510000	8.656300
0.01285647	2012.510000	8.656300
0.01286814	2014.160000	8.660900
0.01287979	2014.160000	8.660900
0.01289113	2014.160000	8.660900
0.01290280	2000.640000	8.580400
0.01291432	2000.640000	8.580400
0.01292591	2000.640000	8.580400
0.01293750	2000.990000	8.568100
0.01294916	2000.990000	8.568100
0.01296097	2000.990000	8.568100
0.01297260	2006.140000	8.582700
0.01298416	2006.140000	8.582700
0.01299588	2006.140000	8.582700
0.01300752	2006.140000	8.582700
0.01301927	2006.360000	8.590500
0.01303058	2006.360000	8.590500
0.01304211	2007.290000	8.592300
0.01305378	2007.290000	8.592300
0.01306557	2007.290000	8.592300
0.01307690	2006.220000	8.590100
0.01308862	2006.220000	8.590100
0.01310001	2006.220000	8.590100
0.01311172	2007.790000	8.593200
0.01312324	2007.790000	8.593200
0.01313479	2007.790000	8.593200
0.01314642	2006.430000	8.591000
0.01315789	2006.430000	8.591000
0.01316947	2006.430000	8.591000
0.01318124	1998.920000	8.591000
0.01319274	1998.920000	8.564100
0.01320414	1998.920000	8.564100
0.01321582	2026.310000	8.685900
0.01322749	2026.310000	8.685900
0.01323885	2026.310000	8.685900
0.01325045	2023.600000	8.683500
0.01326209	2023.600000	8.683500
0.01327387	2023.600000	8.683500
0.01328519	2021.310000	8.678900
0.01329691	2021.310000	8.678900
0.01330880	2021.310000	8.678900
0.01332044	2016.010000	8.668500
0.01333222	2016.010000	8.668500
0.01334373	2016.010000	8.668500
0.01335530	2014.660000	8.665100
0.01336715	2014.660000	8.665100
0.01337863	2014.660000	8.665100
0.01339023	2012.870000	8.661500
0.01340194	2012.870000	8.661500
0.01341341	2012.870000	8.661500
0.01342498	2023.810000	8.684200
0.01343664	2023.810000	8.684200
0.01344838	2023.810000	8.684200
0.01345981	2020.660000	8.677900
0.01347126	2020.660000	8.677900
0.01348296	2020.660000	8.677900
0.01349461	2020.660000	8.677900
0.01350638	2016.660000	8.668600
0.01351841	2016.660000	8.668600
0.01352956	2013.300000	8.661700
0.01354120	2013.300000	8.661700
0.01355281	2013.300000	8.661700
0.01356435	2010.150000	8.656600
0.01357608	2010.150000	8.656600
0.01358764	2010.150000	8.656600
0.01359922	2010.290000	8.657000
0.01361078	2010.290000	8.657000
0.01362294	2010.290000	8.657000
0.01363388	2010.360000	8.657100
0.01364536	2010.360000	8.657100
0.01365699	2006.140000	8.647500
0.01366884	2006.140000	8.647500
0.01368021	2006.140000	8.647500
0.01369175	2006.140000	8.647500
0.01370344	2013.730000	8.662500
0.01371494	2013.730000	8.662500
0.01372672	2013.730000	8.662500
0.01373811	2014.300000	8.663800
0.01374979	2014.300000	8.663800
0.01376133	2014.300000	8.663800
0.01377274	2013.370000	8.662200
0.01378446	2013.370000	8.662200
0.01379596	2013.370000	8.662200
0.01380755	2012.370000	8.659900
0.01381912	2012.370000	8.659900
0.01383065	2012.370000	8.659900
0.01384248	2017.520000	8.671000
0.01385405	2017.520000	8.671000
0.01386557	2017.520000	8.671000
0.01387723	2017.160000	8.669900
0.01388863	2017.160000	8.669900
0.01390037	2017.160000	8.669900
0.01391203	2005.570000	8.611100
0.01392353	2005.570000	8.611100
0.01393531	2005.570000	8.611100
0.01394667	1997.130000	8.558500
0.01395826	1997.130000	8.558500
0.01396986	1997.130000	8.558500
0.01398147	2001.500000	8.578700
0.01399325	2001.500000	8.578700
0.01400471	2001.500000	8.578700
0.01401634	2004.430000	8.587300
0.01402791	2004.430000	8.587300
0.01403936	2004.430000	8.587300
0.01405103	2001.420000	8.580600
0.01406256	2001.420000	8.580600
0.01407417	2001.420000	8.580600
0.01408564	2004.930000	8.588100
0.01409726	2004.930000	8.588100
0.01410875	2004.930000	8.588100
0.01412042	2003.710000	8.585300
0.01413242	2003.710000	8.585300
0.01414370	2002.210000	8.585300
0.01415517	2002.210000	8.585300
0.01416669	2002.210000	8.582000
0.01417819	2002.210000	8.582000
0.01418980	1996.270000	8.558100
0.01420146	1996.270000	8.558100
0.01421304	1996.270000	8.558100
0.01422463	2009.720000	8.641500
0.01423610	2009.720000	8.641500
0.01424787	2009.720000	8.641500
0.01425926	2013.080000	8.655600
0.01427093	2013.080000	8.655600
0.01428237	2013.080000	8.655600
0.01429409	2014.300000	8.658300
0.01430550	2014.300000	8.658300
0.01431740	2014.300000	8.658300
0.01432872	2006.570000	8.642300
0.01434031	2006.570000	8.642300
0.01435201	2006.570000	8.642300
0.01436387	2000.710000	8.630500
0.01437554	2000.710000	8.630500
0.01438715	2000.710000	8.630500
0.01439902	1995.700000	8.620700
0.01441053	1995.700000	8.620700
0.01442200	1995.700000	8.620700
0.01443374	2000.060000	8.629500
0.01444527	2000.060000	8.629500
0.01445709	2000.060000	8.629500
0.01446867	2004.570000	8.639100
0.01448021	2004.570000	8.639100
0.01449188	2010.870000	8.652900
0.01450334	2010.870000	8.652900
0.01451498	2010.870000	8.652900
0.01452664	2010.870000	8.652900
0.01453839	2015.300000	8.660800
0.01454979	2015.300000	8.660800
0.01456148	2015.300000	8.660800
0.01457286	2012.800000	8.650600
0.01458453	2012.800000	8.650600
0.01459612	2012.800000	8.650600
0.01460760	1982.830000	8.527100
0.01461924	1982.830000	8.527100
0.01463095	1982.830000	8.527100
0.01464238	1975.750000	8.519400
0.01465378	1975.750000	8.519400
0.01466568	1975.750000	8.519400
0.01467703	1983.540000	8.542400
0.01468851	1983.540000	8.542400
0.01470001	1983.540000	8.542400
0.01471170	1989.190000	8.555000
0.01472336	1989.190000	8.555000
0.01473514	1989.190000	8.555000
0.01474655	1988.550000	8.553600
0.01475808	1988.550000	8.553600
0.01476968	1988.550000	8.553600
0.01478134	1989.260000	8.555400
0.01479284	1989.260000	8.555400
0.01480447	1994.840000	8.567000
0.01481596	1994.840000	8.567000
0.01482762	1994.840000	8.567000
0.01483944	1994.840000	8.567000
0.01485097	2006.650000	8.584800
0.01486252	2006.650000	8.584800
0.01487421	2006.650000	8.584800
0.01488565	2001.920000	8.568400
0.01489741	2001.920000	8.568400
0.01490884	2001.920000	8.568400
0.01492034	2031.460000	8.700700
0.01493196	2031.460000	8.700700
0.01494389	2031.460000	8.700700
0.01495532	2026.890000	8.690700
0.01496682	2026.890000	8.690700
0.01497852	2025.890000	8.688700
0.01499019	2025.890000	8.688700
0.01500174	2025.890000	8.688700
0.01501322	2025.890000	8.688700
0.01502479	2022.810000	8.683400
0.01503649	2022.810000	8.683400
0.01504817	2022.810000	8.683400
0.01505973	2020.950000	8.679000
0.01507109	2020.950000	8.679000
0.01508295	2020.950000	8.679000
0.01509451	2020.590000	8.678800
0.01510620	2020.590000	8.678800
0.01511793	2021.670000	8.678800
0.01512933	2021.670000	8.681100
0.01514084	2021.670000	8.681100
0.01515258	2023.020000	8.685800
0.01516384	2023.020000	8.685800
0.01517566	2023.020000	8.685800
0.01518720	2023.020000	8.685800
0.01519877	2026.740000	8.690500
0.01521044	2026.740000	8.690500
0.01522212	2026.740000	8.690500
0.01523344	2012.370000	8.662100
0.01524500	2012.370000	8.662100
0.01525690	2012.370000	8.662100
0.01526832	2010.790000	8.658400
0.01527990	2010.790000	8.658400
0.01529150	2012.580000	8.662700
0.01530322	2012.580000	8.662700
0.01531480	2012.580000	8.662700
0.01532633	2012.580000	8.662700
0.01533791	2007.500000	8.651800
0.01534942	2007.500000	8.651800
0.01536123	2007.500000	8.651800
0.01537255	2014.660000	8.665600
0.01538429	2014.660000	8.665600
0.01539594	2014.660000	8.665600
0.01540764	2017.300000	8.671000
0.01541928	2017.300000	8.671000
0.01543096	2017.300000	8.671000
0.01544228	2012.870000	8.661900
0.01545410	2012.870000	8.661900
0.01546544	2008.080000	8.651600
0.01547700	2008.080000	8.651600
0.01548866	2008.080000	8.651600
0.01550038	2008.080000	8.651600
0.01551181	2010.510000	8.656700
0.01552356	2010.510000	8.656700
0.01553492	2010.510000	8.656700
0.01554652	2014.230000	8.664300
0.01555823	2014.230000	8.664300
0.01556972	2014.230000	8.664300
0.01558145	2017.660000	8.670900
0.01559304	2017.660000	8.670900
0.01560454	1990.910000	8.555800
0.01561600	1990.910000	8.555800
0.01562796	1990.910000	8.555800
0.01563922	1978.750000	8.527800
0.01565088	1978.750000	8.527800
0.01566291	1978.750000	8.527800
0.01567446	1978.750000	8.527800
0.01568597	1981.470000	8.539000
0.01569734	1981.470000	8.539000
0.01570899	1981.470000	8.539000
0.01572051	1984.110000	8.545300
0.01573221	1984.110000	8.545300
0.01574396	1984.110000	8.545300
0.01575549	2004.000000	8.587200
0.01576729	2004.000000	8.587200
0.01577867	2008.290000	8.595900
0.01579043	2008.290000	8.595900
0.01580218	2008.290000	8.595900
0.01581337	2008.290000	8.595900
0.01582508	2008.580000	8.596500
0.01583674	2008.580000	8.596500
0.01584846	2008.580000	8.596500
0.01585992	2007.000000	8.585500
0.01587164	2007.000000	8.585500
0.01588315	2007.000000	8.585500
0.01589470	2003.640000	8.569000
0.01590617	2003.640000	8.569000
0.01591774	2026.240000	8.569000
0.01592939	2026.240000	8.681700
0.01594123	2026.240000	8.681700
0.01595241	2027.320000	8.685500
0.01596412	2027.320000	8.685500
0.01597639	2027.320000	8.685500
0.01598741	2027.320000	8.685500
0.01599909	2030.530000	8.692800
0.01601058	2030.530000	8.692800
0.01602218	2030.530000	8.692800
0.01603372	2026.890000	8.685300
0.01604534	2026.890000	8.685300
0.01605690	2026.890000	8.685300
0.01606854	2028.460000	8.688700
0.01608028	2028.460000	8.688700
0.01609221	2028.320000	8.688400
0.01610367	2028.320000	8.688400
0.01611508	2028.320000	8.688400
0.01612688	2029.030000	8.689400
0.01613856	2029.030000	8.689400
0.01615035	2029.030000	8.689400
0.01616198	2029.030000	8.689400
0.01617369	2025.530000	8.681700
0.01618549	2025.530000	8.681700
0.01619718	2025.530000	8.681700
0.01620867	2026.820000	8.684400
0.01622038	2026.820000	8.684400
0.01623178	2026.820000	8.684400
0.01624332	2026.670000	8.684700
0.01625486	2026.670000	8.684700
0.01626644	2002.500000	8.580200
0.01627796	2002.500000	8.580200
0.01628957	2002.500000	8.580200
0.01630118	1998.130000	8.564000
0.01631304	1998.130000	8.564000
0.01632451	1998.130000	8.564000
0.01633591	1998.130000	8.564000
0.01634752	1998.490000	8.573900
0.01635910	1998.490000	8.573900
0.01637060	1998.490000	8.573900
0.01638226	1995.490000	8.568100
0.01639380	1995.490000	8.568100
0.01640562	1993.480000	8.564100
0.01641689	1993.480000	8.564100
0.01642855	1993.480000	8.564100
0.01644046	1993.480000	8.564300
0.01645193	1993.480000	8.564300
0.01646321	1993.480000	8.564300
0.01647485	1995.630000	8.568600
0.01648650	1995.630000	8.568600
0.01649793	1995.630000	8.568600
0.01650948	1995.630000	8.568600
0.01652125	2000.920000	8.579900
0.01653269	2000.920000	8.579900
0.01654425	2000.920000	8.579900
0.01655569	1998.420000	8.560100
0.01656736	1998.420000	8.560100
0.01657888	2026.670000	8.687900
0.01659067	2026.670000	8.687900
0.01660214	2026.670000	8.687900
0.01661374	2025.890000	8.688300
0.01662557	2025.890000	8.688300
0.01663685	2025.890000	8.688300
0.01664840	2025.890000	8.688300
0.01666002	2022.380000	8.680700
0.01667205	2022.380000	8.680700
0.01668343	2022.380000	8.680700
0.01669468	2021.740000	8.679300
0.01670654	2021.740000	8.679300
0.01671799	2021.740000	8.679300
0.01672983	2023.100000	8.682200
0.01674135	2023.100000	8.682200
0.01675310	2019.730000	8.674900
0.01676446	2019.730000	8.674900
0.01677605	2019.730000	8.674900
0.01678795	2019.160000	8.673400
0.01679947	2019.160000	8.673400
0.01681120	2019.160000	8.673400
0.01682272	2019.160000	8.673400
0.01683412	2022.670000	8.680700
0.01684553	2022.670000	8.680700
0.01685725	2022.670000	8.680700
0.01686896	2020.310000	8.675100
0.01688051	2020.310000	8.675100
0.01689194	2021.020000	8.676200
0.01690356	2021.020000	8.676200
0.01691516	2021.020000	8.676200
0.01692677	2019.660000	8.674100
0.01693838	2019.660000	8.674100
0.01694994	2019.660000	8.674100
0.01696149	2024.670000	8.684800
0.01697309	2024.670000	8.684800
0.01698466	2024.670000	8.684800
0.01699620	2024.670000	8.684800
0.01700767	2024.670000	8.684600
0.01701934	2024.670000	8.684600
0.01703089	2024.670000	8.684600
0.01704259	2029.320000	8.694800
0.01705428	2029.320000	8.694800
0.01706565	2029.180000	8.693600
0.01707736	2029.180000	8.693600
0.01708896	2029.180000	8.693600
0.01710051	2030.750000	8.697200
0.01711185	2030.750000	8.697200
0.01712350	2030.750000	8.697200
0.01713523	2026.530000	8.688300
0.01714676	2026.530000	8.688300
0.01715834	2026.530000	8.688300
0.01716995	2026.530000	8.688300
0.01718183	2034.040000	8.703300
0.01719324	2034.040000	8.703300
0.01720481	2034.040000	8.703300
0.01721638	2033.820000	8.703200
0.01722800	2033.820000	8.703200
0.01723965	2027.670000	8.691600
0.01725118	2027.670000	8.691600
0.01726273	2027.670000	8.691600
0.01727431	2004.070000	8.597900
0.01728598	2004.070000	8.597900
0.01729735	2004.070000	8.597900
0.01730896	1992.630000	8.550700
0.01732075	1992.630000	8.550700
0.01733237	1992.630000	8.550700
0.01734392	1992.630000	8.550700
0.01735551	1991.270000	8.557700
0.01736779	1991.270000	8.557700
0.01737922	1991.270000	8.557700
0.01739046	1997.990000	8.573600
0.01740205	1997.990000	8.573600
0.01741381	2002.570000	8.583400
0.01742543	2002.570000	8.583400
0.01743691	2002.570000	8.583400
0.01744852	2003.000000	8.584200
0.01746019	2003.000000	8.584200
0.01747178	2003.000000	8.584200
0.01748314	2003.000000	8.584200
0.01749471	2003.640000	8.585400
0.01750656	2003.640000	8.585400
0.01751811	2003.640000	8.585400
0.01752975	2005.360000	8.587900
0.01754125	2005.360000	8.587900
0.01755279	2000.780000	8.560500
0.01756442	2000.780000	8.560500
0.01757631	2000.780000	8.560500
0.01758815	2026.890000	8.680500
0.01759965	2026.890000	8.680500
0.01761105	2026.890000	8.680500
0.01762270	2023.530000	8.677200
0.01763450	2023.530000	8.677200
0.01764574	2023.530000	8.677200
0.01765758	2023.530000	8.677200
0.01766898	2023.020000	8.675700
0.01768047	2023.020000	8.675700
0.01769204	2023.020000	8.675700
0.01770365	2018.520000	8.666600
0.01771514	2018.520000	8.666600
0.01772700	2016.300000	8.662500
0.01773836	2016.300000	8.662500
0.01775000	2016.300000	8.662500
0.01776164	2022.950000	8.676900
0.01777345	2022.950000	8.676900
0.01778506	2022.950000	8.676900
0.01779657	2023.380000	8.677700
0.01780819	2023.380000	8.677700
0.01781963	2023.380000	8.677700
0.01783116	2023.380000	8.677700
0.01784306	2022.450000	8.676000
0.01785479	2022.450000	8.676000
0.01786649	2022.450000	8.676000
0.01787830	2026.460000	8.683800
0.01788959	2026.460000	8.683800
0.01790140	2026.460000	8.683800
0.01791306	2026.460000	8.683800
0.01792479	2026.460000	8.683800
0.01793612	2016.160000	8.652400
0.01794773	2016.160000	8.652400
0.01795922	2016.160000	8.652400
0.01797064	2004.790000	8.572900
0.01798244	2004.790000	8.572900
0.01799396	2004.790000	8.572900
0.01800557	2004.790000	8.572900
0.01801712	2007.000000	8.585500
0.01802867	2007.000000	8.585500
0.01804017	2009.650000	8.597600
0.01805182	2009.650000	8.597600
0.01806413	2009.650000	8.597600
0.01807494	1991.200000	8.559600
0.01808642	1991.200000	8.559600
0.01809831	1991.200000	8.559600
0.01810979	1990.690000	8.558500
0.01812138	1990.690000	8.558500
0.01813288	1990.690000	8.558500
0.01814465	1996.200000	8.570300
0.01815622	1996.200000	8.570300
0.01816810	1996.200000	8.570300
0.01817970	1996.200000	8.570300
0.01819147	2009.150000	8.597600
0.01820286	2009.150000	8.597600
0.01821437	1998.850000	8.566100
0.01822605	1998.850000	8.566100
0.01823742	1998.850000	8.566100
0.01824909	2004.860000	8.591200
0.01826061	2004.860000	8.591200
0.01827230	2004.860000	8.591200
0.01828390	2050.560000	8.736700
0.01829531	2050.560000	8.736700
0.01830693	2050.560000	8.736700
0.01831865	2051.710000	8.739000
0.01833009	2051.710000	8.739000
0.01834193	2051.710000	8.739000
0.01835323	2051.710000	8.739000
0.01836476	2055.140000	8.745900
0.01837644	2055.140000	8.745900
0.01838794	2044.340000	8.723700
0.01839956	2044.340000	8.723700
0.01841119	2044.340000	8.723700
0.01842266	2056.070000	8.748400
0.01843436	2056.070000	8.748400
0.01844575	2056.070000	8.748400
0.01845747	2050.420000	8.736800
0.01846896	2050.420000	8.736800
0.01848058	2050.420000	8.736800
0.01849215	2050.420000	8.736800
0.01850375	2058.210000	8.753200
0.01851514	2058.210000	8.753200
0.01852708	2060.360000	8.757600
0.01853869	2060.360000	8.757600
0.01855032	2060.360000	8.757600
0.01856198	2061.650000	8.759900
0.01857340	2061.650000	8.759900
0.01858508	2061.650000	8.759900
0.01859683	2056.070000	8.748100
0.01860868	2056.070000	8.748100
0.01862007	2056.070000	8.748100
0.01863163	2056.070000	8.748100
0.01864296	2056.070000	8.748100
0.01865476	2056.070000	8.748100
0.01866633	2056.070000	8.748100
0.01867784	2043.840000	8.722700
0.01868959	2043.840000	8.722700
0.01870118	2043.550000	8.722300
0.01871292	2043.550000	8.722300
0.01872455	2043.550000	8.722300
0.01873591	2048.490000	8.733300
0.01874744	2048.490000	8.733300
0.01875957	2048.490000	8.733300
0.01877095	2052.140000	8.740700
0.01878258	2052.140000	8.740700
0.01879427	2052.140000	8.740700
0.01880579	2057.790000	8.751900
0.01881747	2057.790000	8.751900
0.01882891	2057.790000	8.751900
0.01884072	2057.790000	8.751900
0.01885233	2002.350000	8.637700
0.01886385	2002.350000	8.637700
0.01887574	2002.210000	8.637700
0.01888706	2002.210000	8.637700
0.01889872	2002.210000	8.637700
0.01891045	1998.990000	8.631400
0.01892218	1998.990000	8.631400
0.01893373	1998.990000	8.631400
0.01894537	1995.630000	8.624200
0.01895684	1995.630000	8.624200
0.01896854	1995.630000	8.624200
0.01898094	1967.520000	8.494400
0.01899163	1967.520000	8.494400
0.01900315	1967.520000	8.494400
0.01901473	1967.520000	8.494400
0.01902615	1969.810000	8.508700
0.01903844	1969.810000	8.508700
0.01905005	1970.670000	8.516500
0.01906146	1970.670000	8.516500
0.01907334	1970.670000	8.516500
0.01908434	1972.460000	8.520200
0.01909588	1972.460000	8.520200
0.01910747	1972.460000	8.520200
0.01911907	1975.030000	8.525800
0.01913062	1975.030000	8.525800
0.01914220	1975.030000	8.525800
0.01915406	1977.180000	8.530100
0.01916567	1977.180000	8.530100
0.01917740	1977.180000	8.530100
0.01918905	1972.740000	8.522300
0.01920062	1972.740000	8.522300
0.01921257	1972.740000	8.522300
0.01922434	1971.960000	8.510100
0.01923593	1971.960000	8.510100
0.01924757	1971.960000	8.510100
0.01925983	1978.680000	8.517800
0.01927056	1978.680000	8.517800
0.01928271	1978.680000	8.517800
0.01929400	2004.210000	8.636200
0.01930565	2004.210000	8.636200
0.01931698	2004.210000	8.636200
0.01932888	2002.350000	8.632400
0.01934069	2002.350000	8.632400
0.01935220	2002.350000	8.632400
0.01936427	2002.350000	8.632400
0.01937557	2002.350000	8.632400
0.01938701	2002.350000	8.632400
0.01939892	61.150000	0.518300
0.01941036	61.150000	0.518300
0.01942193	61.150000	0.518300
0.01943350	61.150000	0.517000
0.01944522	61.150000	0.517000
0.01945668	61.150000	0.517000
0.01946811	61.150000	0.519800
0.01947970	61.150000	0.519800
0.01949126	61.150000	0.519800
0.01950284	61.150000	0.520400
0.01951456	61.150000	0.520400
0.01952633	61.150000	0.520400
0.01953814	61.220000	0.523300
0.01954977	61.220000	0.523300
0.01956127	61.220000	0.523300
0.01957292	61.220000	0.526600
0.01958433	61.220000	0.526600
0.01959604	61.220000	0.526600
0.01960791	74.380000	0.559700
0.01961922	74.380000	0.559700
0.01963076	74.380000	0.559700
0.01964221	73.310000	0.558700
0.01965410	73.310000	0.558700
0.01966583	82.680000	0.577400
0.01967719	82.680000	0.577400
0.01968854	82.680000	0.577400
0.01970012	82.680000	0.577400
0.01971160	69.730000	0.477400
0.01972326	69.730000	0.477400
0.01973497	69.730000	0.477400
0.01974654	57.290000	0.381100
0.01975808	57.290000	0.381100
0.01976968	57.290000	0.381100
0.01978124	23.960000	0.187300
0.01979271	23.960000	0.187300
0.01980428	23.960000	0.187300
0.01981586	20.810000	0.183100
0.01982744	20.810000	0.183100
0.01983935	18.520000	0.180500
0.01985061	18.520000	0.180500
0.01986220	18.520000	0.180500
0.01987372	18.520000	0.180500
0.01988529	18.020000	0.179800
0.01989693	18.020000	0.179800
0.01990860	18.020000	0.179800
0.01992014	18.020000	0.180000
0.01993176	18.020000	0.180000
0.01994329	18.020000	0.180000
0.01995484	17.880000	0.179800
0.01996744	17.880000	0.179800
0.01997797	17.880000	0.179800
0.01998951	17.950000	0.180100
0.02000106	17.950000	0.180100
0.02001289	17.880000	0.179700
0.02002457	17.880000	0.179700
0.02003616	17.880000	0.179700
0.02004772	17.880000	0.179700
0.02005928	18.590000	0.183700
0.02007088	18.590000	0.183700
0.02008256	18.590000	0.183700
0.02009406	18.590000	0.183700
0.02010563	18.590000	0.183700
0.02011735	18.590000	0.183700
0.02012905	31.610000	0.257600
0.02014052	31.610000	0.257600
0.02015267	31.970000	0.259000
0.02016398	31.970000	0.259000
0.02017552	31.970000	0.259000
0.02018693	31.970000	0.259000
0.02019851	25.530000	0.206500
0.02021041	25.530000	0.206500
0.02022167	25.530000	0.206500
0.02023356	15.020000	0.085000
0.02024508	15.020000	0.085000
0.02025666	15.020000	0.085000
0.02026821	14.940000	0.084900
0.02028000	14.940000	0.084900
0.02029191	14.940000	0.084900
0.02030340	14.870000	0.084500
0.02031507	14.870000	0.084500
0.02032670	14.870000	0.084600
0.02033833	14.870000	0.084600
0.02034997	14.870000	0.084600
0.02036146	14.870000	0.084600
0.02037314	14.870000	0.084700
0.02038468	14.870000	0.084700
0.02039610	14.870000	0.084700
0.02040785	14.730000	0.084700
0.02041909	14.730000	0.084700
0.02043091	14.730000	0.084700
0.02044233	14.660000	0.084400
0.02045387	14.660000	0.084400
0.02046546	14.660000	0.084400
0.02047701	14.730000	0.084600
0.02048861	14.730000	0.084600
0.02050025	14.730000	0.084400
0.02051186	14.730000	0.084400
0.02052324	14.730000	0.084400
0.02053491	14.730000	0.084400
0.02054657	14.730000	0.085300
0.02055804	14.730000	0.085300
0.02056971	14.730000	0.085300
0.02058140	14.800000	0.085500
0.02059279	14.800000	0.085500
0.02060464	14.800000	0.085500
0.02061603	14.800000	0.084300
0.02062763	14.800000	0.084300
0.02063918	14.870000	0.084300
0.02065065	14.870000	0.084300
0.02066234	14.870000	0.084300
0.02067417	14.870000	0.084200
0.02068536	14.870000	0.084200
0.02069691	14.870000	0.084200
0.02070851	14.870000	0.084200
0.02072017	14.870000	0.084100
0.02073188	14.870000	0.084100
0.02074322	14.870000	0.084100
0.02075491	14.800000	0.083900
0.02076644	14.800000	0.083900
0.02077807	14.800000	0.083900
0.02078980	14.870000	0.084100
0.02080116	14.870000	0.084100
0.02081271	14.870000	0.084100
0.02082444	14.870000	0.084100
0.02083609	14.870000	0.084100
0.02084771	14.870000	0.084100
0.02085934	14.870000	0.084100
0.02087094	14.870000	0.084100
0.02088231	14.870000	0.084100
0.02089390	38.050000	0.262600
0.02090556	38.050000	0.262600
0.02091712	38.050000	0.262600
0.02092873	29.610000	0.207000
0.02094064	29.610000	0.207000
0.02095205	29.610000	0.207000
0.02096362	35.400000	0.244100
0.02097524	35.400000	0.244100
0.02098664	36.760000	0.253700
0.02099817	36.760000	0.253700
0.02100995	36.760000	0.253700
0.02102166	36.760000	0.253700
0.02103303	36.190000	0.249400
0.02104457	36.190000	0.249400
0.02105615	36.190000	0.249400
0.02106767	35.970000	0.247800
0.02107934	35.970000	0.247800
0.02109087	35.970000	0.247800
0.02110243	15.230000	0.089100
0.02111402	15.230000	0.089100
0.02112565	14.800000	0.089100
0.02113721	14.800000	0.083900
0.02114880	14.800000	0.083900
0.02116039	26.530000	0.236200
0.02117211	26.530000	0.236200
0.02118350	26.530000	0.236200
0.02119508	26.530000	0.236200
0.02120668	23.880000	0.226000
0.02121816	23.880000	0.226000
0.02122984	23.880000	0.226000
0.02124135	35.110000	0.297400
0.02125285	35.110000	0.297400
0.02126441	35.110000	0.297400
0.02127618	523.990000	4.298100
0.02128803	523.990000	4.298100
0.02129936	1962.800000	8.485300
0.02131110	1962.800000	8.485300
0.02132278	1962.800000	8.485300
0.02133421	1956.010000	8.466500
0.02134589	1956.010000	8.466500
0.02135787	1956.010000	8.466500
0.02136912	1956.010000	8.466500
0.02138086	1952.500000	8.456400
0.02139225	1952.500000	8.456400
0.02140399	1952.500000	8.456400
0.02141552	1958.010000	8.475400
0.02142709	1958.010000	8.475400
0.02143855	1958.010000	8.475400
0.02145025	1964.800000	8.484200
0.02146185	1964.800000	8.484200
0.02147339	1966.730000	8.494200
0.02148523	1966.730000	8.494200
0.02149646	1966.730000	8.494200
0.02150816	2007.930000	8.644100
0.02151986	2007.930000	8.644100
0.02153133	2007.930000	8.644100
0.02154347	2007.930000	8.644100
0.02155454	2007.930000	8.644100
0.02156624	2007.930000	8.644100
0.02157808	2007.930000	8.644100
0.02158990	2016.520000	8.662800
0.02160146	2016.520000	8.662800
0.02161284	2017.520000	8.664900
0.02162463	2017.520000	8.664900
0.02163609	2017.520000	8.664900
0.02164778	2012.220000	8.654000
0.02165940	2012.220000	8.654000
0.02167101	2012.220000	8.654000
0.02168272	2011.440000	8.652600
0.02169413	2011.440000	8.652600
0.02170574	2011.440000	8.652600
0.02171743	2011.440000	8.652600
0.02172906	2014.510000	8.659400
0.02174095	2014.510000	8.659400
0.02175220	2014.510000	8.659400
0.02176416	2016.590000	8.663700
0.02177573	2016.590000	8.663700
0.02178720	2014.510000	8.659300
0.02179964	2014.510000	8.659300
0.02181047	2014.510000	8.659300
0.02182181	2006.860000	8.631000
0.02183362	2006.860000	8.631000
0.02184530	2006.860000	8.631000
0.02185699	2006.860000	8.631000
0.02186875	1981.540000	8.519300
0.02188041	1981.540000	8.519300
0.02189171	1981.540000	8.519300
0.02190346	1978.680000	8.520900
0.02191501	1978.680000	8.520900
0.02192654	1978.680000	8.520900
0.02193858	1979.470000	8.530400
0.02194987	1979.470000	8.530400
0.02196132	1981.470000	8.534500
0.02197287	1981.470000	8.534500
0.02198435	1981.470000	8.534500
0.02199600	1981.830000	8.535400
0.02200758	1981.830000	8.535400
0.02201933	1981.830000	8.535400
0.02203083	1981.830000	8.535400
0.02204233	1983.040000	8.538200
0.02205376	1983.040000	8.538200
0.02206560	1983.040000	8.538200
0.02207709	1983.610000	8.540800
0.02208878	1983.610000	8.540800
0.02210038	1976.180000	8.507600
0.02211193	1976.180000	8.507600
0.02212359	1976.180000	8.507600
0.02213497	1976.600000	8.516900
0.02214666	1976.600000	8.516900
0.02215851	1976.600000	8.516900
0.02217002	1995.060000	8.613900
0.02218146	1995.060000	8.613900
0.02219322	1995.060000	8.613900
0.02220485	1995.060000	8.613900
0.02221655	1993.770000	8.612600
0.02222818	1993.770000	8.612600
0.02223975	1993.770000	8.612600
0.02225144	1990.270000	8.606000
0.02226294	1990.270000	8.606000
0.02227459	1990.270000	8.606000
0.02228633	1990.270000	8.606000
0.02229778	1990.270000	8.606000
0.02230935	1988.330000	8.599300
0.02232108	1988.330000	8.599300
0.02233271	1988.330000	8.599300
0.02234433	1971.310000	8.502400
0.02235595	1971.310000	8.502400
0.02236795	1971.310000	8.502400
0.02237896	1971.310000	8.502400
0.02239058	1978.460000	8.522500
0.02240222	1978.460000	8.522500
0.02241382	1978.460000	8.522500
0.02242529	1985.830000	8.544600
0.02243690	1985.830000	8.544600
0.02244847	1987.830000	8.549000
0.02246001	1987.830000	8.549000
0.02247176	1987.830000	8.549000
0.02248328	1990.480000	8.554600
0.02249475	1990.480000	8.554600
0.02250637	1990.480000	8.554600
0.02251807	1990.480000	8.554600
0.02252941	1983.970000	8.541000
0.02254100	1983.970000	8.541000
0.02255269	1983.970000	8.541000
0.02256428	1983.470000	8.540100
0.02257582	1983.470000	8.540100
0.02258752	1980.250000	8.531500
0.02259918	1980.250000	8.531500
0.02261050	1980.250000	8.531500
0.02262211	1978.390000	8.515000
0.02263370	1978.390000	8.515000
0.02264515	1978.390000	8.515000
0.02265679	2007.570000	8.645900
0.02266851	2007.570000	8.645900
0.02267984	2007.570000	8.645900
0.02269163	2007.570000	8.645900
0.02270302	2010.510000	8.652800
0.02271471	2010.510000	8.652800
0.02272634	2010.510000	8.652800
0.02273808	2014.160000	8.660600
0.02274957	2014.160000	8.660600
0.02276132	2015.590000	8.663700
0.02277316	2015.590000	8.663700
0.02278475	2015.590000	8.663700
0.02279628	2012.800000	8.658300
0.02280781	2012.800000	8.658300
0.02281948	2012.800000	8.658300
0.02283115	2005.640000	8.643500
0.02284269	2005.640000	8.643500
0.02285402	2005.640000	8.643500
0.02286601	2005.640000	8.643500
0.02287742	2003.780000	8.640000
0.02288928	2003.780000	8.640000
0.02290074	2008.220000	8.640000
0.02291234	2008.220000	8.649400
0.02292410	2008.220000	8.649400
0.02293547	2007.860000	8.648300
0.02294701	2007.860000	8.648300
0.02295870	2007.860000	8.648300
0.02297015	2009.010000	8.650800
0.02298169	2009.010000	8.650800
0.02299329	2009.010000	8.650800
0.02300494	2009.010000	8.650800
0.02301666	2009.010000	8.650800
0.02302830	2009.010000	8.650800
0.02303985	2009.010000	8.650800
0.02305149	1985.830000	8.538400
0.02306294	1985.830000	8.538400
0.02307454	1989.690000	8.553600
0.02308619	1989.690000	8.553600
0.02309786	1989.690000	8.553600
0.02310956	1992.480000	8.559800
0.02312115	1992.480000	8.559800
0.02313263	1992.480000	8.559800
0.02314429	1993.770000	8.562400
0.02315593	1993.770000	8.562400
0.02316759	1993.770000	8.562400
0.02317912	1996.770000	8.568700
0.02319081	1996.770000	8.568700
0.02320245	1996.770000	8.568700
0.02321405	1996.770000	8.568700
0.02322552	1991.550000	8.558400
0.02323719	1991.550000	8.558400
0.02324836	1990.690000	8.551100
0.02326005	1990.690000	8.551100
0.02327167	1990.690000	8.551100
0.02328348	1983.690000	8.522600
0.02329488	1983.690000	8.522600
0.02330648	1983.690000	8.522600
0.02331794	2010.010000	8.646600
0.02332981	2010.010000	8.646600
0.02334113	2010.010000	8.646600
0.02335296	2010.010000	8.646600
0.02336424	2011.080000	8.649500
0.02337596	2011.080000	8.649500
0.02338784	2013.650000	8.649500
0.02339938	2013.650000	8.654700
0.02341082	2013.650000	8.654700
0.02342259	61.150000	0.516900
0.02343413	61.150000	0.516900
0.02344587	61.150000	0.516900
0.02345742	61.220000	0.520100
0.02346898	61.220000	0.520100
0.02348046	61.220000	0.520100
0.02349255	61.220000	0.518200
0.02350410	61.220000	0.518200
0.02351530	61.220000	0.518200
0.02352686	61.220000	0.518200
0.02353868	61.220000	0.519000
0.02355003	61.220000	0.519000
0.02356156	61.220000	0.518400
0.02357332	61.220000	0.518400
0.02358472	61.220000	0.518400
0.02359622	61.220000	0.522300
0.02360809	61.220000	0.522300
0.02361942	61.220000	0.522300
0.02363104	67.090000	0.533900
0.02364253	67.090000	0.533900
0.02365420	67.090000	0.533900
0.02366575	67.800000	0.532300
0.02367737	67.800000	0.532300
0.02368884	67.800000	0.532300
0.02370037	67.800000	0.532300
0.02371196	80.890000	0.566700
0.02372367	80.890000	0.566700
0.02373516	80.890000	0.566700
0.02374668	80.890000	0.566700
0.02375830	80.890000	0.566700
0.02377021	54.140000	0.364600
0.02378162	54.140000	0.364600
0.02379301	54.140000	0.364600
0.02380464	47.630000	0.336700
0.02381645	47.630000	0.336700
0.02382774	47.630000	0.336700
0.02383938	21.950000	0.184400
0.02385097	21.950000	0.184400
0.02386269	21.950000	0.184400
0.02387413	21.950000	0.184400
0.02388565	19.590000	0.181500
0.02389730	19.590000	0.181500
0.02390885	17.950000	0.180100
0.02392049	17.950000	0.180100
0.02393201	17.950000	0.180100
0.02394347	17.660000	0.180300
0.02395514	17.660000	0.180300
0.02396682	17.660000	0.180300
0.02397836	17.660000	0.180100
0.02399015	17.660000	0.180100
0.02400170	17.660000	0.180100
0.02401347	17.660000	0.180100
0.02402502	17.590000	0.180100
0.02403653	17.590000	0.180100
0.02404811	17.590000	0.180100
0.02405979	17.590000	0.180100
0.02407139	17.590000	0.180100
0.02408278	17.450000	0.180100
0.02409447	17.450000	0.180100
0.02410602	17.450000	0.180100
0.02411777	34.260000	0.278300
0.02412929	34.260000	0.278300
0.02414112	34.260000	0.278300
0.02415240	31.250000	0.256200
0.02416437	31.250000	0.256200
0.02417581	31.250000	0.256200
0.02418747	31.250000	0.256200
0.02419914	30.540000	0.252200
0.02421071	30.540000	0.252200
0.02422226	30.750000	0.253400
0.02423384	30.750000	0.253400
0.02424559	30.750000	0.253400
0.02425721	18.880000	0.128100
0.02426862	18.880000	0.128100
0.02428074	18.880000	0.128100
0.02429212	14.940000	0.085100
0.02430374	14.940000	0.085100
0.02431551	14.940000	0.085100
0.02432711	14.870000	0.084700
0.02433863	14.870000	0.084700
0.02435019	14.870000	0.084700
0.02436154	14.870000	0.084700
0.02437350	14.940000	0.084600
0.02438484	14.940000	0.084600
0.02439644	14.940000	0.084600
0.02440819	14.940000	0.084600
0.02441991	14.940000	0.084600
0.02443164	14.940000	0.084500
0.02444322	14.940000	0.084500
0.02445468	14.940000	0.084500
0.02446622	14.940000	0.084500
0.02447767	14.940000	0.084500
0.02448927	14.940000	0.084500
0.02450097	14.940000	0.084800
0.02451257	14.940000	0.084800
0.02452429	14.940000	0.084200
0.02453608	14.940000	0.084200
0.02454769	14.940000	0.084200
0.02455911	14.940000	0.084200
0.02457062	15.020000	0.084100
0.02458222	15.020000	0.084100
0.02459380	15.020000	0.084100
0.02460541	14.940000	0.084200
0.02461720	14.940000	0.084200
0.02462873	14.940000	0.084200
0.02464030	14.940000	0.084200
0.02465187	14.940000	0.084200
0.02466366	14.940000	0.084200
0.02467522	14.870000	0.084100
0.02468659	14.870000	0.084100
0.02469819	14.870000	0.084200
0.02470969	14.870000	0.084200
0.02472113	14.870000	0.084200
0.02473310	14.870000	0.084200
0.02474444	14.870000	0.084300
0.02475620	14.870000	0.084300
0.02476772	14.870000	0.084300
0.02477921	14.870000	0.084400
0.02479074	14.870000	0.084400
0.02480241	14.870000	0.084400
0.02481398	14.870000	0.084100
0.02482571	14.870000	0.084100
0.02483712	14.870000	0.084100
0.02484838	14.870000	0.084400
0.02486046	14.870000	0.084400
0.02487194	14.870000	0.084400
0.02488347	14.870000	0.083900
0.02489480	14.870000	0.083900
0.02490671	14.870000	0.083900
0.02491814	14.870000	0.084100
0.02493003	14.870000	0.084100
0.02494148	14.870000	0.084100
0.02495293	34.970000	0.243400
0.02496454	34.970000	0.243400
0.02497613	34.970000	0.243400
0.02498799	29.110000	0.202700
0.02499939	29.110000	0.202700
0.02501110	29.110000	0.202700
0.02502284	42.120000	0.293300
0.02503436	42.120000	0.293300
0.02504595	42.120000	0.293300
0.02505751	41.910000	0.290300
0.02506914	41.910000	0.290300
0.02508079	41.910000	0.290300
0.02509243	41.620000	0.286500
0.02510374	41.620000	0.286500
0.02511539	41.620000	0.286500
0.02512716	41.480000	0.287000
0.02513881	41.480000	0.287000
0.02515020	41.480000	0.287000
0.02516185	41.410000	0.289400
0.02517352	41.410000	0.289400
0.02518513	41.410000	0.289400
0.02519671	41.410000	0.289400
0.02520865	41.410000	0.289400
0.02521985	41.410000	0.289400
0.02523164	41.480000	0.288400
0.02524293	41.480000	0.288400
0.02525480	41.480000	0.288400
0.02526627	14.800000	0.084100
0.02527780	14.800000	0.084100
0.02528946	14.800000	0.084100
0.02530089	17.520000	0.156600
0.02531231	17.520000	0.156600
0.02532473	17.520000	0.156600
0.02533573	21.100000	0.199200
0.02534730	21.100000	0.199200
0.02535878	34.760000	0.294000
0.02537031	34.760000	0.294000
0.02538201	34.760000	0.294000
0.02539356	34.760000	0.294000
0.02540522	34.900000	0.292400
0.02541674	34.900000	0.292400
0.02542845	34.900000	0.292400
0.02543975	2006.930000	8.592100
0.02545132	2006.930000	8.592100
0.02546303	2006.930000	8.592100
0.02547451	1998.850000	8.556800
0.02548627	1998.850000	8.556800
0.02549775	1998.850000	8.556800
0.02550956	1999.280000	8.571700
0.02552108	1999.280000	8.571700
0.02553299	1998.630000	8.566100
0.02554464	1998.630000	8.566100
0.02555632	1998.630000	8.566100
0.02556770	1998.630000	8.566100
0.02557968	1997.130000	8.560100
0.02559098	1997.130000	8.560100
0.02560256	1997.130000	8.560100
0.02561422	1997.420000	8.566400
0.02562591	1997.420000	8.566400
0.02563735	1997.420000	8.566400
0.02564887	2025.030000	8.697300
0.02566037	2025.030000	8.697300
0.02567194	2015.160000	8.697300
0.02568373	2015.160000	8.663200
0.02569510	2015.160000	8.663200
0.02570678	2015.160000	8.663200
0.02571853	2015.010000	8.663600
0.02573022	2015.010000	8.663600
0.02574160	2015.010000	8.663600
0.02575331	2021.240000	8.691000
0.02576490	2021.240000	8.691000
0.02577664	2021.240000	8.691000
0.02578818	2017.370000	8.668700
0.02579999	2017.370000	8.668700
0.02581134	2017.370000	8.668700
0.02582307	2013.730000	8.661500
0.02583447	2013.730000	8.661500
0.02584595	2016.090000	8.666400
0.02585753	2016.090000	8.666400
0.02586929	2016.090000	8.666400
0.02588087	2016.090000	8.666400
0.02589235	2014.160000	8.662400
0.02590387	2014.160000	8.662400
0.02591544	2014.160000	8.662400
0.02592715	2014.160000	8.662400
0.02593853	2014.160000	8.662400
0.02595020	2014.160000	8.662400
0.02596175	2007.650000	8.648900
0.02597340	2007.650000	8.648900
0.02598493	2007.650000	8.648900
0.02599654	2007.070000	8.648300
0.02600807	2007.070000	8.648300
0.02601988	2007.650000	8.649000
0.02603177	2007.650000	8.649000
0.02604351	2007.650000	8.649000
0.02605464	2007.650000	8.649000
0.02606650	2010.940000	8.656200
0.02607840	2010.940000	8.656200
0.02608898	2010.940000	8.656200
0.02610056	2010.360000	8.655200
0.02611213	2010.360000	8.655200
0.02612403	2010.360000	8.655200
0.02613545	2014.230000	8.662900
0.02614700	2014.230000	8.662900
0.02615874	2012.940000	8.662900
0.02617043	2012.940000	8.660200
0.02618203	2012.940000	8.660200
0.02619368	2016.090000	8.666800
0.02620534	2016.090000	8.666800
0.02621697	2016.090000	8.666800
0.02622854	2016.090000	8.666800
0.02624043	2017.950000	8.670900
0.02625201	2017.950000	8.670900
0.02626375	2017.950000	8.670900
0.02627542	2019.520000	8.674100
0.02628669	2019.520000	8.674100
0.02629848	2019.520000	8.674100
0.02630994	2019.090000	8.673000
0.02632178	2019.090000	8.673000
0.02633345	1998.560000	8.580100
0.02634484	1998.560000	8.580100
0.02635637	1998.560000	8.580100
0.02636793	1990.770000	8.550500
0.02637975	1990.770000	8.550500
0.02639128	1990.770000	8.550500
0.02640279	1990.770000	8.550500
0.02641432	1996.060000	8.567700
0.02642590	1996.060000	8.567700
0.02643749	1996.060000	8.567700
0.02644913	1995.060000	8.565700
0.02646071	1995.060000	8.565700
0.02647229	1995.060000	8.565700
0.02648392	1992.200000	8.559700
0.02649546	1992.200000	8.559700
0.02650707	1990.980000	8.557200
0.02651851	1990.980000	8.557200
0.02653017	1990.980000	8.557200
0.02654179	1994.410000	8.564700
0.02655330	1994.410000	8.564700
0.02656495	1994.410000	8.564700
0.02657645	1994.410000	8.564700
0.02658816	1994.270000	8.558500
0.02659961	1994.270000	8.558500
0.02661132	1994.270000	8.558500
0.02662303	1987.910000	8.533400
0.02663446	1987.910000	8.533400
0.02664615	1987.910000	8.533400
0.02665779	1987.910000	8.533400
0.02666934	1987.910000	8.533400
0.02668087	2019.310000	8.667800
0.02669251	2019.310000	8.667800
0.02670429	2019.310000	8.667800
0.02671590	2019.310000	8.667800
0.02672780	2019.380000	8.667900
0.02673921	2019.380000	8.667900
0.02675111	2019.380000	8.667900
0.02676263	2019.660000	8.668800
0.02677444	2019.660000	8.668800
0.02678579	2019.660000	8.668800
0.02679745	2015.590000	8.661400
0.02680910	2015.590000	8.661400
0.02682083	2015.660000	8.661100
0.02683238	2015.660000	8.661100
0.02684422	2015.660000	8.661100
0.02685575	2010.080000	8.649600
0.02686756	2010.080000	8.649600
0.02687907	2010.080000	8.649600
0.02689073	2012.580000	8.655300
0.02690241	2012.580000	8.655300
0.02691391	2012.580000	8.655300
0.02692573	2012.580000	8.655300
0.02693735	2012.440000	8.654900
0.02694916	2012.440000	8.654900
0.02696078	2012.440000	8.654900
0.02697271	2010.010000	8.649700
0.02698406	2010.010000	8.649700
0.02699578	1998.780000	8.581000
0.02700729	1998.780000	8.581000
0.02701944	1998.780000	8.581000
0.02703050	1990.770000	8.546000
0.02704215	1990.770000	8.546000
0.02705370	1990.770000	8.546000
0.02706547	1999.640000	8.575800
0.02707704	1999.640000	8.575800
0.02708868	1999.640000	8.575800
0.02710023	1999.640000	8.575800
0.02711172	1997.060000	8.570500
0.02712337	1997.060000	8.570500
0.02713488	1997.060000	8.570500
0.02714683	1994.770000	8.565700
0.02715824	1994.770000	8.565700
0.02716979	1992.270000	8.560200
0.02718144	1992.270000	8.560200
0.02719295	1992.270000	8.560200
0.02720471	1989.690000	8.554600
0.02721627	1989.690000	8.554600
0.02722788	1989.690000	8.554600
0.02723928	1993.770000	8.563600
0.02725097	1993.770000	8.563600
0.02726269	1993.770000	8.563600
0.02727439	1993.770000	8.563600
0.02728580	1988.050000	8.536800
0.02729722	1988.050000	8.536800
0.02730888	2018.020000	8.668100
0.02732049	2018.020000	8.668100
0.02733206	2018.020000	8.668100
0.02734362	2017.800000	8.669900
0.02735522	2017.800000	8.669900
0.02736683	2017.800000	8.669900
0.02737815	2017.800000	8.669900
0.02738999	2017.800000	8.669900
0.02740166	2017.800000	8.669900
0.02741331	2017.800000	8.669900
0.02742514	2018.520000	8.671800
0.02743681	2018.520000	8.671800
0.02744853	2018.520000	8.671800
0.02746002	2016.870000	8.668300
0.02747175	2016.870000	8.668300
0.02748344	2010.220000	8.654600
0.02749470	2010.220000	8.654600
0.02750646	2010.220000	8.654600
0.02751789	2003.000000	8.639300
0.02752951	2003.000000	8.639300
0.02754127	2003.000000	8.639300
0.02755277	1986.550000	8.605500
0.02756448	1986.550000	8.605500
0.02757600	1986.550000	8.605500
0.02758773	1986.550000	8.605500
0.02759916	1984.330000	8.601400
0.02761091	1984.330000	8.601400
0.02762262	1984.330000	8.601400
0.02763421	1981.400000	8.595400
0.02764578	1981.400000	8.595400
0.02765720	1982.760000	8.598300
0.02766891	1982.760000	8.598300
0.02768057	1982.760000	8.598300
0.02769203	1991.770000	8.616500
0.02770359	1991.770000	8.616500
0.02771528	1991.770000	8.616500
0.02772681	2009.150000	8.652800
0.02773844	2009.150000	8.652800
0.02775034	2009.150000	8.652800
0.02776146	2009.150000	8.652800
0.02777316	2011.440000	8.657300
0.02778473	2011.440000	8.657300
0.02779622	2015.730000	8.667300
0.02780789	2015.730000	8.667300
0.02781964	2015.730000	8.667300
0.02783119	2013.010000	8.660900
0.02784262	2013.010000	8.660900
0.02785456	2013.010000	8.660900
0.02786615	2015.230000	8.665400
0.02787766	2015.230000	8.665400
0.02788925	2015.230000	8.665400
0.02790086	2014.660000	8.664000
0.02791244	2014.660000	8.664000
0.02792406	2014.660000	8.664000
0.02793564	2014.660000	8.664000
0.02794715	2009.720000	8.654500
0.02795883	2009.720000	8.654500
0.02797035	2010.580000	8.655700
0.02798211	2010.580000	8.655700
0.02799346	2010.580000	8.655700
0.02800509	2000.140000	8.596000
0.02801670	2000.140000	8.596000
0.02802828	2000.140000	8.596000
0.02803998	1986.900000	8.535900
0.02805162	1986.900000	8.535900
0.02806348	1986.900000	8.535900
0.02807490	1991.840000	8.559700
0.02808691	1991.840000	8.559700
0.02809844	1991.840000	8.559700
0.02811019	1991.840000	8.559700
0.02812156	1991.840000	8.559700
0.02813350	1991.840000	8.559700
0.02814559	1994.700000	8.566000
0.02815696	1994.700000	8.566000
0.02816845	1994.700000	8.566000
0.02818001	1990.550000	8.557200
0.02819155	1990.550000	8.557200
0.02820309	1990.550000	8.557200
0.02821450	1987.260000	8.550300
0.02822622	1987.260000	8.550300
0.02823775	1987.260000	8.550300
0.02824937	1986.400000	8.548700
0.02826125	1986.400000	8.548700
0.02827265	1986.400000	8.548700
0.02828404	1980.750000	8.517400
0.02829575	1980.750000	8.517400
0.02830726	1980.750000	8.517400
0.02831892	1990.480000	8.573900
0.02833045	1990.480000	8.573900
0.02834201	1990.480000	8.573900
0.02835365	1999.990000	8.627100
0.02836510	1999.990000	8.627100
0.02837685	1999.990000	8.627100
0.02838837	1992.980000	8.612500
0.02839998	1992.980000	8.612500
0.02841153	1992.980000	8.612500
0.02842324	1992.980000	8.612500
0.02843487	1990.120000	8.607300
0.02844676	1990.120000	8.607300
0.02845775	1987.260000	8.601800
0.02846935	1987.260000	8.601800
0.02848093	1987.260000	8.601800
0.02849250	1992.340000	8.612500
0.02850403	1992.340000	8.612500
0.02851564	1992.340000	8.612500
0.02852738	1994.630000	8.617100
0.02853905	1994.630000	8.617100
0.02855057	1994.630000	8.617100
0.02856240	2003.500000	8.635100
0.02857417	2003.500000	8.635100
0.02858572	2003.500000	8.635100
0.02859736	2003.500000	8.635100
0.02860918	2001.140000	8.630100
0.02862036	2001.140000	8.630100
0.02863229	1997.420000	8.622700
0.02864368	1997.420000	8.622700
0.02865562	1997.420000	8.622700
0.02866727	1994.270000	8.616500
0.02867884	1994.270000	8.616500
0.02869021	1994.270000	8.616500
0.02870176	1967.230000	8.490700
0.02871362	1967.230000	8.490700
0.02872527	1967.230000	8.490700
0.02873664	1980.320000	8.530400
0.02874840	1980.320000	8.530400
0.02875988	1984.900000	8.530400
0.02877162	1984.900000	8.530400
0.02878308	1984.900000	8.545100
0.02879458	1984.900000	8.545100
0.02880616	1985.550000	8.546900
0.02881772	1985.550000	8.546900
0.02882909	1985.550000	8.546900
0.02884101	1992.130000	8.560600
0.02885237	1992.130000	8.560600
0.02886392	1992.130000	8.560600
0.02887560	1992.910000	8.562200
0.02888731	1992.910000	8.562200
0.02889866	1992.910000	8.562200
0.02891034	1994.130000	8.564700
0.02892198	1994.130000	8.564700
0.02893332	1994.130000	8.564700
0.02894501	1991.840000	8.555800
0.02895649	1991.840000	8.555800
0.02896818	1991.840000	8.555800
0.02897969	1986.330000	8.534600
0.02899152	1986.330000	8.534600
0.02900286	1986.330000	8.534600
0.02901442	2011.580000	8.657300
0.02902584	2011.580000	8.657300
0.02903767	2011.580000	8.657300
0.02904917	2013.230000	8.660800
0.02906062	2013.230000	8.660800
0.02907247	2013.230000	8.660800
0.02908398	2014.510000	8.663700
0.02909560	2014.510000	8.663700
0.02910712	2014.510000	8.663700
0.02911907	2013.370000	8.661000
0.02913093	2013.370000	8.661000
0.02914203	2013.370000	8.661000
0.02915374	2012.080000	8.658500
0.02916544	2012.080000	8.658500
0.02917676	2012.080000	8.658500
0.02918829	2010.870000	8.656400
0.02920002	2010.870000	8.656400
0.02921161	2010.870000	8.656400
0.02922338	2009.010000	8.652500
0.02923476	2009.010000	8.652500
0.02924611	2006.290000	8.646700
0.02925797	2006.290000	8.646700
0.02926934	2006.290000	8.646700
0.02928117	2006.290000	8.646700
0.02929297	2004.930000	8.644000
0.02930444	2004.930000	8.644000
0.02931604	2004.930000	8.644000
0.02932778	2003.140000	8.640300
0.02933939	2003.140000	8.640300
0.02935100	2003.140000	8.640300
0.02936250	2002.930000	8.640000
0.02937418	2002.930000	8.640000
0.02938572	2002.930000	8.640000
0.02939729	2001.920000	8.637400
0.02940865	2001.920000	8.637400
0.02942034	2001.920000	8.637400
0.02943203	1996.200000	8.626200
0.02944356	1996.200000	8.626200
0.02945508	1996.200000	8.626200
0.02946682	1998.710000	8.630900
0.02947863	1998.710000	8.630900
0.02948984	1998.710000	8.630900
0.02950154	2003.070000	8.640800
0.02951293	2003.070000	8.640800
0.02952456	2003.070000	8.640800
0.02953618	2004.000000	8.643000
0.02954770	2004.000000	8.643000
0.02955925	2004.000000	8.643000
0.02957083	2006.570000	8.648400
0.02958243	2006.570000	8.648400
0.02959409	2006.570000	8.648400
0.02960566	2013.230000	8.661600
0.02961721	2013.230000	8.661600
0.02962877	2013.230000	8.661600
0.02964030	2011.940000	8.658900
0.02965189	2011.940000	8.658900
0.02966348	2011.940000	8.658900
0.02967502	2011.650000	8.658200
0.02968663	2011.650000	8.658200
0.02969862	2011.650000	8.658200
0.02970980	1981.830000	8.525400
0.02972139	1981.830000	8.525400
0.02973289	1987.760000	8.544800
0.02974468	1987.760000	8.544800
0.02975602	1987.760000	8.544800
0.02976791	1987.760000	8.544800
0.02977951	1989.760000	8.556300
0.02979088	1989.760000	8.556300
0.02980266	1989.760000	8.556300
0.02981429	1985.690000	8.547900
0.02982586	1985.690000	8.547900
0.02983774	1985.690000	8.547900
0.02984928	1984.040000	8.544500
0.02986076	1984.040000	8.544500
0.02987220	1984.040000	8.544500
0.02988419	1986.050000	8.548600
0.02989535	1986.050000	8.548600
0.02990698	1986.050000	8.548600
0.02991884	1988.120000	8.554100
0.02993030	1988.120000	8.554100
0.02994204	1988.120000	8.554100
0.02995337	1985.970000	8.543500
0.02996534	1985.970000	8.543500
0.02997662	1985.970000	8.543500
0.02998845	1987.910000	8.534300
0.02999976	1987.910000	8.534300
0.03001161	1987.910000	8.534300
0.03002311	2007.070000	8.641800
0.03003507	2007.070000	8.641800
0.03004642	2009.150000	8.646400
0.03005792	2009.150000	8.646400
0.03006943	2009.150000	8.646400
0.03008110	2009.150000	8.646400
0.03009271	2010.440000	8.649500
0.03010425	2010.440000	8.649500
0.03011568	2010.440000	8.649500
0.03012747	2011.720000	8.652600
0.03013897	2011.720000	8.652600
0.03015069	2011.720000	8.652600
0.03016205	2008.650000	8.646200
0.03017365	2008.650000	8.646200
0.03018544	2008.650000	8.646200
0.03019672	2010.790000	8.650900
0.03020838	2010.790000	8.650900
0.03021998	2011.220000	8.651500
0.03023159	2011.220000	8.651500
0.03024299	2011.220000	8.651500
0.03025475	2011.220000	8.651500
0.03026627	1995.630000	8.619700
0.03027804	1995.630000	8.619700
0.03028979	1995.630000	8.619700
0.03030125	2001.350000	8.631400
0.03031279	2001.350000	8.631400
0.03032449	2001.350000	8.631400
0.03033618	2009.290000	8.647800
0.03034774	2009.290000	8.647800
0.03035939	2009.290000	8.647800
0.03037109	1998.420000	8.584900
0.03038244	1998.420000	8.584900
0.03039391	1986.830000	8.537400
0.03040574	1986.830000	8.537400
0.03041723	1986.830000	8.537400
0.03042884	1986.830000	8.537400
0.03044035	1993.910000	8.564700
0.03045212	1993.910000	8.564700
0.03046360	1993.910000	8.564700
0.03047538	1994.630000	8.566600
0.03048666	1994.630000	8.566600
0.03049832	1994.630000	8.566600
0.03050988	1993.060000	8.563500
0.03052138	1993.060000	8.563500
0.03053293	1995.130000	8.568000
0.03054488	1995.130000	8.568000
0.03055622	1995.130000	8.568000
0.03056778	1995.130000	8.568000
0.03057950	1995.700000	8.569200
0.03059080	1995.700000	8.569200
0.03060250	1995.700000	8.569200
0.03061413	1995.060000	8.566600
0.03062543	1995.060000	8.566600
0.03063740	1995.060000	8.566600
0.03064898	1987.910000	8.537400
0.03066037	1987.910000	8.537400
0.03067185	1987.910000	8.537400
0.03068347	2013.940000	8.660100
0.03069505	2013.940000	8.660100
0.03070657	2013.800000	8.661800
0.03071819	2013.800000	8.661800
0.03072981	2013.800000	8.661800
0.03074141	2013.800000	8.661800
0.03075289	2011.440000	8.657400
0.03076448	2011.440000	8.657400
0.03077598	2011.440000	8.657400
0.03078772	2010.510000	8.655500
0.03079934	2010.510000	8.655500
0.03081067	2010.510000	8.655500
0.03082240	2001.280000	8.636100
0.03083396	2001.280000	8.636100
0.03084553	2001.280000	8.636100
0.03085711	2001.140000	8.635700
0.03086873	2001.140000	8.635700
0.03088025	2000.350000	8.633900
0.03089183	2000.350000	8.633900
0.03090336	2000.350000	8.633900
0.03091523	2000.350000	8.633900
0.03092647	2005.570000	8.644900
0.03093814	2005.570000	8.644900
0.03094990	2005.570000	8.644900
0.03096137	2003.930000	8.641500
0.03097285	2003.930000	8.641500
0.03098429	2003.930000	8.641500
0.03099631	1998.780000	8.630900
0.03100792	1998.780000	8.630900
0.03101939	2005.290000	8.645200
0.03103093	2005.290000	8.645200
0.03104252	2005.290000	8.645200
0.03105409	2006.570000	8.647400
0.03106601	2006.570000	8.647400
0.03107772	2006.570000	8.647400
0.03108928	2006.570000	8.647400
0.03110066	2006.860000	8.647700
0.03111223	2006.860000	8.647700
0.03112377	2006.860000	8.647700
0.03113529	2006.930000	8.648000
0.03114684	2006.930000	8.648000
0.03115831	2006.930000	8.648000
0.03117025	2009.580000	8.653800
0.03118175	2009.580000	8.653800
0.03119311	2009.150000	8.653100
0.03120480	2009.150000	8.653100
0.03121642	2009.150000	8.653100
0.03122794	2009.150000	8.653100
0.03123966	2014.580000	8.664600
0.03125134	2014.580000	8.664600
0.03126274	2014.580000	8.664600
0.03127432	2026.600000	8.689300
0.03128591	2026.600000	8.689300
0.03129753	2026.600000	8.689300
0.03130910	2024.450000	8.684800
0.03132074	2024.450000	8.684800
0.03133264	2024.450000	8.684800
0.03134407	2022.240000	8.680200
0.03135565	2022.240000	8.680200
0.03136707	2002.570000	8.604500
0.03137889	2002.570000	8.604500
0.03139049	2002.570000	8.604500
0.03140191	2002.570000	8.604500
0.03141352	1986.400000	8.535700
0.03142510	1986.400000	8.535700
0.03143668	1986.400000	8.535700
0.03144804	1991.050000	8.559800
0.03145976	1991.050000	8.559800
0.03147131	1991.050000	8.559800
0.03148295	1994.130000	8.566600
0.03149456	1994.130000	8.566600
0.03150624	1989.620000	8.566600
0.03151773	1989.620000	8.557100
0.03152932	1989.620000	8.557100
0.03154090	1989.620000	8.557100
0.03155237	1989.620000	8.557100
0.03156383	1989.620000	8.557100
0.03157556	1989.620000	8.557100
0.03158718	1986.050000	8.549600
0.03159862	1986.050000	8.549600
0.03161019	1986.050000	8.549600
0.03162179	1980.400000	8.539200
0.03163354	1980.400000	8.539200
0.03164507	1980.400000	8.539200
0.03165696	1967.230000	8.490200
0.03166865	1967.230000	8.490200
0.03168012	1991.980000	8.602600
0.03169184	1991.980000	8.602600
0.03170338	1991.980000	8.602600
0.03171517	1993.410000	8.614400
0.03172655	1993.410000	8.614400
0.03173802	1993.410000	8.614400
0.03174976	1993.410000	8.614400
0.03176125	1995.770000	8.619400
0.03177286	1995.770000	8.619400
0.03178434	1995.770000	8.619400
0.03179597	2000.420000	8.629500
0.03180766	2000.420000	8.629500
0.03181918	2000.420000	8.629500
0.03183064	2003.070000	8.635200
0.03184221	2003.070000	8.635200
0.03185387	2010.080000	8.650000
0.03186536	2010.080000	8.650000
0.03187697	2010.080000	8.650000
0.03188854	2010.080000	8.650000
0.03190006	2009.150000	8.647900
0.03191167	2009.150000	8.647900
0.03192329	2009.150000	8.647900
0.03193487	2014.800000	8.659300
0.03194646	2014.800000	8.659300
0.03195787	2014.800000	8.659300
0.03196985	2012.220000	8.653900
0.03198115	2012.220000	8.653900
0.03199275	2009.220000	8.647900
0.03200451	2009.220000	8.647900
0.03201587	2009.220000	8.647900
0.03202747	1989.980000	8.574500
0.03203904	1989.980000	8.574500
0.03205064	1989.980000	8.574500
0.03206222	1989.980000	8.574500
0.03207377	1981.830000	8.523000
0.03208536	1981.830000	8.523000
0.03209711	1981.830000	8.523000
0.03210853	1979.110000	8.528900
0.03212042	1979.110000	8.528900
0.03213218	1979.110000	8.528900
0.03214341	1981.970000	8.541000
0.03215520	1981.970000	8.541000
0.03216678	1981.610000	8.540200
0.03217867	1981.610000	8.540200
0.03219009	1981.610000	8.540200
0.03220148	1987.260000	8.552200
0.03221324	1987.260000	8.552200
0.03222464	1987.260000	8.552200
0.03223674	1987.260000	8.552200
0.03224845	1986.620000	8.550800
0.03226012	1986.620000	8.550800
0.03227153	1986.620000	8.550800
0.03228321	1987.760000	8.553800
0.03229481	1987.760000	8.553800
0.03230637	1989.260000	8.553800
0.03231775	1989.260000	8.551400
0.03232950	1989.260000	8.551400
0.03234106	2017.450000	8.655300
0.03235279	2017.450000	8.655300
0.03236441	2017.450000	8.655300
0.03237627	54.140000	0.453900
0.03238752	54.140000	0.453900
0.03239926	54.140000	0.453900
0.03241073	54.140000	0.453900
0.03242223	34.970000	0.279600
0.03243390	34.970000	0.279600
0.03244554	34.970000	0.279600
0.03245726	39.330000	0.314600
0.03246855	39.330000	0.314600
0.03248015	34.470000	0.276200
0.03249177	34.470000	0.276200
0.03250324	34.470000	0.276200
0.03251492	59.930000	0.509900
0.03252664	59.930000	0.509900
0.03253780	59.930000	0.509900
0.03254956	59.930000	0.509900
0.03256118	60.510000	0.518900
0.03257264	60.510000	0.518900
0.03258434	60.510000	0.518900
0.03259597	60.580000	0.519500
0.03260758	60.580000	0.519500
0.03261911	60.580000	0.519500
0.03263054	88.760000	0.609100
0.03264237	88.760000	0.609100
0.03265417	92.760000	0.618300
0.03266544	92.760000	0.618300
0.03267683	92.760000	0.618300
0.03268840	94.050000	0.622200
0.03270009	94.050000	0.622200
0.03271168	94.050000	0.622200
0.03272316	94.050000	0.622200
0.03273481	81.390000	0.535500
0.03274624	81.390000	0.535500
0.03275797	81.390000	0.535500
0.03276943	64.940000	0.424800
0.03278111	64.940000	0.424800
0.03279242	36.190000	0.424800
0.03280427	36.190000	0.287000
0.03281582	36.190000	0.287000
0.03282766	31.110000	0.279800
0.03283897	31.110000	0.279800
0.03285058	31.110000	0.279800
0.03286230	30.540000	0.279900
0.03287369	30.540000	0.279900
0.03288527	30.540000	0.279900
0.03289674	30.540000	0.279900
0.03290858	30.320000	0.279500
0.03291987	30.320000	0.279500
0.03293153	30.320000	0.279500
0.03294315	30.180000	0.279300
0.03295473	30.180000	0.279300
0.03296616	30.180000	0.279800
0.03297786	30.180000	0.279800
0.03298959	30.180000	0.279800
0.03300105	30.180000	0.280300
0.03301273	30.180000	0.280300
0.03302421	30.180000	0.280300
0.03303602	30.180000	0.280300
0.03304800	30.250000	0.280500
0.03305971	30.250000	0.280500
0.03307089	30.250000	0.280500
0.03308256	55.070000	0.392500
0.03309383	55.070000	0.392500
0.03310535	55.070000	0.392500
0.03311697	46.490000	0.352500
0.03312839	46.490000	0.352500
0.03314020	43.410000	0.338600
0.03315166	43.410000	0.338600
0.03316321	43.410000	0.338600
0.03317480	43.700000	0.340100
0.03318627	43.700000	0.340100
0.03319799	43.700000	0.340100
0.03320950	43.700000	0.340100
0.03322101	35.330000	0.284400
0.03323256	35.330000	0.284400
0.03324419	35.330000	0.284400
0.03325572	16.300000	0.107600
0.03326751	16.300000	0.107600
0.03327910	16.300000	0.107600
0.03329067	16.300000	0.107800
0.03330243	16.300000	0.107800
0.03331387	16.300000	0.107600
0.03332542	16.300000	0.107600
0.03333694	16.300000	0.107600
0.03334866	16.300000	0.107200
0.03336010	16.300000	0.107200
0.03337160	16.300000	0.107200
0.03338348	16.300000	0.107200
0.03339493	16.300000	0.107400
0.03340638	16.300000	0.107400
0.03341793	16.300000	0.107400
0.03342958	16.300000	0.107400
0.03344124	16.300000	0.107400
0.03345256	16.230000	0.107400
0.03346424	16.230000	0.107100
0.03347591	16.230000	0.107100
0.03348735	16.230000	0.107100
0.03349910	16.230000	0.107100
0.03351075	16.230000	0.107100
0.03352235	16.230000	0.107200
0.03353384	16.230000	0.107200
0.03354541	16.230000	0.107200
0.03355697	16.230000	0.107200
0.03356853	16.160000	0.107100
0.03358014	16.160000	0.107100
0.03359176	16.160000	0.107100
0.03360325	16.160000	0.106800
0.03361494	16.160000	0.106800
0.03362640	16.160000	0.106800
0.03363813	16.160000	0.106800
0.03364976	16.160000	0.106800
0.03366152	16.160000	0.106800
0.03367285	16.160000	0.106800
0.03368433	16.160000	0.106800
0.03369603	16.230000	0.106500
0.03370757	16.230000	0.106500
0.03371907	16.230000	0.106500
0.03373066	16.230000	0.106500
0.03374209	16.160000	0.106400
0.03375390	16.160000	0.106400
0.03376559	16.160000	0.106400
0.03377701	16.160000	0.106300
0.03378850	16.160000	0.106300
0.03380012	16.090000	0.106000
0.03381189	16.090000	0.106000
0.03382334	16.090000	0.106000
0.03383463	16.160000	0.106400
0.03384626	16.160000	0.106400
0.03385796	16.160000	0.106400
0.03386956	16.230000	0.106600
0.03388119	16.230000	0.106600
0.03389277	16.230000	0.106600
0.03390433	16.230000	0.106600
0.03391586	16.160000	0.106500
0.03392756	16.160000	0.106500
0.03393892	16.160000	0.106500
0.03395063	16.160000	0.106400
0.03396234	16.160000	0.106400
0.03397400	16.160000	0.106200
0.03398539	16.160000	0.106200
0.03399698	16.160000	0.106200
0.03400855	16.160000	0.107400
0.03402014	16.160000	0.107400
0.03403191	16.160000	0.107400
0.03404334	16.160000	0.107400
0.03405492	16.160000	0.107100
0.03406660	16.160000	0.107100
0.03407833	16.160000	0.107100
0.03408942	16.230000	0.106900
0.03410115	16.230000	0.106900
0.03411306	16.230000	0.107000
0.03412466	16.230000	0.107000
0.03413601	16.230000	0.107000
0.03414773	16.160000	0.107000
0.03415936	16.160000	0.107000
0.03417097	16.160000	0.107000
0.03418233	16.160000	0.107000
0.03419398	16.160000	0.107000
0.03420553	16.160000	0.107000
0.03421728	16.160000	0.107000
0.03422868	16.160000	0.107300
0.03424029	16.160000	0.107300
0.03425188	16.160000	0.107300
0.03426355	16.230000	0.107400
0.03427508	16.230000	0.107400
0.03428654	16.230000	0.107400
0.03429824	16.230000	0.107400
0.03430981	16.230000	0.107400
0.03432126	16.230000	0.107500
0.03433289	16.230000	0.107500
0.03434446	16.230000	0.107500
0.03435598	16.230000	0.105700
0.03436756	16.230000	0.105700
0.03437916	16.230000	0.105700
0.03439075	16.230000	0.105700
0.03440235	16.230000	0.105800
0.03441392	16.230000	0.105800
0.03442550	16.230000	0.105800
0.03443714	16.160000	0.106000
0.03444872	16.160000	0.106000
0.03446030	16.160000	0.105800
0.03447193	16.160000	0.105800
0.03448340	16.160000	0.105800
0.03449485	16.160000	0.106000
0.03450641	16.160000	0.106000
0.03451822	16.160000	0.106000
0.03452983	16.160000	0.106000
0.03454142	16.090000	0.106100
0.03455279	16.090000	0.106100
0.03456429	16.090000	0.106100
0.03457617	16.090000	0.105900
0.03458777	16.090000	0.105900
0.03459911	16.090000	0.105900
0.03461072	16.160000	0.105900
0.03462229	16.160000	0.105900
0.03463380	16.160000	0.105400
0.03464552	16.160000	0.105400
0.03465716	16.160000	0.105400
0.03466876	16.230000	0.105600
0.03468054	16.230000	0.105600
0.03469186	16.230000	0.105600
0.03470340	16.230000	0.105600
0.03471514	16.160000	0.105500
0.03472650	16.160000	0.105500
0.03473800	16.160000	0.105500
0.03474959	16.160000	0.105500
0.03476126	16.160000	0.105500
0.03477360	16.160000	0.105500
0.03478450	16.160000	0.105500
0.03479608	16.160000	0.105500
0.03480762	16.090000	0.105400
0.03481919	16.090000	0.105400
0.03483115	16.090000	0.105400
0.03484234	16.020000	0.105200
0.03485394	16.020000	0.105200
0.03486549	16.020000	0.105200
0.03487749	16.020000	0.105200
0.03488904	16.020000	0.105400
0.03490071	16.020000	0.105400
0.03491206	16.020000	0.105400
0.03492372	16.020000	0.105200
0.03493534	16.020000	0.105200
0.03494689	16.090000	0.105400
0.03495868	16.090000	0.105400
0.03497009	16.090000	0.105400
0.03498172	16.090000	0.105300
0.03499314	16.090000	0.105300
0.03500488	16.090000	0.105300
0.03501631	16.090000	0.105600
0.03502793	16.090000	0.105600
0.03503931	16.090000	0.105600
0.03505124	16.090000	0.105600
0.03506251	16.090000	0.105200
0.03507411	16.090000	0.105200
0.03508574	16.090000	0.105200
0.03509775	16.160000	0.105700
0.03510892	16.160000	0.105700
0.03512041	16.160000	0.105800
0.03513201	16.160000	0.105800
0.03514354	16.160000	0.105800
0.03515519	16.160000	0.106000
0.03516690	16.160000	0.106000
0.03517856	16.160000	0.106000
0.03518987	16.160000	0.106000
0.03520153	16.160000	0.105800
0.03521303	16.160000	0.105800
0.03522456	16.160000	0.105800
0.03523625	16.160000	0.106000
0.03524770	16.160000	0.106000
0.03525937	16.160000	0.105600
0.03527100	16.160000	0.105600
0.03528248	16.160000	0.105600
0.03529399	16.160000	0.105600
0.03530560	16.160000	0.105600
0.03531722	16.160000	0.105600
0.03532933	16.090000	0.105300
0.03534043	16.090000	0.105300
0.03535243	16.090000	0.105300
0.03536387	16.090000	0.105300
0.03537519	16.090000	0.105500
0.03538675	16.090000	0.105500
0.03539836	16.090000	0.105500
0.03541006	16.090000	0.105400
0.03542150	16.090000	0.105400
0.03543317	16.020000	0.105400
0.03544483	16.020000	0.105400
0.03545624	16.020000	0.105400
0.03546777	16.020000	0.105500
0.03548007	16.020000	0.105500
0.03549101	16.020000	0.105500
0.03550256	16.020000	0.105400
0.03551424	16.020000	0.105400
0.03552580	16.020000	0.105400
0.03553736	16.020000	0.105400
0.03554910	16.020000	0.105200
0.03556066	16.020000	0.105200
0.03557205	16.020000	0.105200
0.03558378	16.020000	0.105200
0.03559535	16.020000	0.105200
0.03560668	16.020000	0.105100
0.03561839	16.020000	0.105100
0.03562981	16.020000	0.105100
0.03564184	16.020000	0.105100
0.03565330	16.020000	0.105100
0.03566498	16.020000	0.105100
0.03567644	16.020000	0.105400
0.03568797	16.020000	0.105400
0.03569943	16.020000	0.105400
0.03571106	16.020000	0.105400
0.03572264	16.090000	0.105400
0.03573447	16.090000	0.105400
0.03574583	16.020000	0.105400
0.03575755	16.020000	0.105400
0.03576913	16.020000	0.105400
0.03578045	16.020000	0.105300
0.03579222	16.020000	0.105300
0.03580378	16.020000	0.105300
0.03581545	16.020000	0.105300
0.03582723	16.020000	0.105300
0.03583862	16.020000	0.105300
0.03585024	16.020000	0.105300
0.03586197	16.020000	0.105200
0.03587330	16.020000	0.105200
0.03588472	16.020000	0.105200
0.03589638	16.020000	0.105100
0.03590804	16.020000	0.105100
0.03591987	16.020000	0.105200
0.03593126	16.020000	0.105200
0.03594277	16.020000	0.105200
0.03595459	16.020000	0.105300
0.03596581	16.020000	0.105300
0.03597744	16.020000	0.105300
0.03598918	16.020000	0.105400
0.03600065	16.020000	0.105400
0.03601238	16.020000	0.105400
0.03602396	16.020000	0.105400
0.03603545	15.950000	0.105500
0.03604697	15.950000	0.105500
0.03605863	15.950000	0.105500
0.03607012	16.020000	0.105700
0.03608174	16.020000	0.105700
0.03609333	16.020000	0.104900
0.03610476	16.020000	0.104900
0.03611669	16.020000	0.104900
0.03612788	16.020000	0.104900
0.03613946	16.020000	0.104900
0.03615126	16.020000	0.104900
0.03616262	16.020000	0.104900
0.03617418	16.020000	0.104900
0.03618612	16.020000	0.104900
0.03619770	16.020000	0.104900
0.03620904	16.090000	0.104900
0.03622057	16.090000	0.104900
0.03623213	16.090000	0.104900
0.03624395	16.020000	0.104800
0.03625527	16.020000	0.104800
0.03626681	16.090000	0.105100
0.03627847	16.090000	0.105100
0.03628993	16.090000	0.105100
0.03630157	16.090000	0.105100
0.03631323	16.090000	0.105100
0.03632476	16.090000	0.105100
0.03633634	16.090000	0.105000
0.03634795	16.090000	0.105000
0.03635948	16.090000	0.105000
0.03637101	16.090000	0.105000
0.03638267	16.020000	0.104900
0.03639405	16.020000	0.104900
0.03640600	16.020000	0.104900
0.03641748	16.020000	0.105000
0.03642885	16.020000	0.105000
0.03644043	16.020000	0.104900
0.03645208	16.020000	0.104900
0.03646373	16.020000	0.104900
0.03647539	16.020000	0.105000
0.03648692	16.020000	0.105000
0.03649858	16.020000	0.105000
0.03654490	16.020000	0.104900
0.03654637	16.020000	0.104900
0.03655639	16.020000	0.104900
0.03656793	16.020000	0.104900
0.03657956	16.020000	0.104500
0.03659117	16.020000	0.104500
0.03660272	16.020000	0.104500
0.03661447	15.950000	0.104500
0.03662568	15.950000	0.104500
0.03663731	15.950000	0.104500
0.03664890	15.950000	0.104900
0.03666044	15.950000	0.104900
0.03667209	15.950000	0.104900
0.03668383	15.950000	0.104900
0.03669520	15.950000	0.104800
0.03670689	15.950000	0.104800
0.03671833	15.950000	0.104800
0.03672992	15.950000	0.105100
0.03674161	15.950000	0.105100
0.03675337	16.020000	0.105300
0.03676485	16.020000	0.105300
0.03677640	16.020000	0.105300
0.03678825	16.020000	0.105300
0.03679971	16.020000	0.105300
0.03681127	16.020000	0.105300
0.03682280	16.020000	0.105100
0.03683433	16.020000	0.105100
0.03684615	16.020000	0.105100
0.03685757	16.020000	0.105100
0.03686911	16.020000	0.105200
0.03688066	16.020000	0.105200
0.03689223	16.020000	0.105200
0.03690384	16.020000	0.105000
0.03691571	16.020000	0.105000
0.03692700	16.020000	0.105100
0.03693873	16.020000	0.105100
0.03695005	16.020000	0.105100
0.03696171	15.950000	0.105200
0.03697316	15.950000	0.105200
0.03698470	15.950000	0.105200
0.03699652	15.950000	0.104900
0.03700780	15.950000	0.104900
0.03701955	15.950000	0.104900
0.03703110	15.950000	0.104900
0.03704279	15.950000	0.104800
0.03705443	15.950000	0.104800
0.03706590	15.950000	0.105000
0.03707743	15.950000	0.105000
0.03708900	15.950000	0.105000
0.03710084	15.950000	0.104700
0.03711222	15.950000	0.104700
0.03712391	15.950000	0.104700
0.03713516	15.950000	0.104800
0.03714707	15.950000	0.104800
0.03715839	15.950000	0.104800
0.03717009	16.020000	0.105200
0.03721663	16.020000	0.105100
0.03721817	16.020000	0.105100
0.03722784	16.020000	0.105100
0.03723957	16.020000	0.105100
0.03725094	16.020000	0.105100
0.03726253	16.020000	0.105100
0.03727407	16.020000	0.104800
0.03728579	16.020000	0.104800
0.03729755	16.020000	0.104800
0.03730911	16.020000	0.104600
0.03732050	16.020000	0.104600
0.03733193	16.020000	0.104600
0.03734361	16.020000	0.104600
0.03735530	16.020000	0.104700
0.03736670	16.020000	0.104700
0.03737866	16.020000	0.104700
0.03739001	16.020000	0.104700
0.03740147	16.020000	0.104700
0.03741299	16.020000	0.104700
0.03742475	16.020000	0.104700
0.03743633	16.020000	0.104700
0.03744782	16.020000	0.104600
0.03745924	16.020000	0.104600
0.03747081	16.020000	0.104600
0.03748262	16.020000	0.104800
0.03749414	16.020000	0.104800
0.03750554	16.020000	0.104800
0.03751750	16.020000	0.104800
0.03752880	16.020000	0.104900
0.03754056	16.020000	0.104900
0.03755186	16.020000	0.104900
0.03756347	15.950000	0.104700
0.03757521	15.950000	0.104700
0.03758662	15.950000	0.104800
0.03759840	15.950000	0.104800
0.03760980	15.950000	0.104800
0.03762156	15.870000	0.104500
0.03763293	15.870000	0.104500
0.03764440	15.870000	0.104500
0.03765604	15.870000	0.104500
0.03766785	15.870000	0.104500
0.03767933	15.870000	0.104500
0.03769108	15.870000	0.104500
0.03770231	15.870000	0.104200
0.03771418	15.870000	0.104200
0.03772575	15.870000	0.104200
0.03773703	15.870000	0.104600
0.03774876	15.870000	0.104600
0.03776034	15.870000	0.104300
0.03777206	15.870000	0.104300
0.03778367	15.870000	0.104300
0.03779505	15.870000	0.104200
0.03780699	15.870000	0.104200
0.03781825	15.870000	0.104200
0.03783014	15.870000	0.104100
0.03784147	15.870000	0.104100
0.03785294	15.870000	0.104100
0.03786486	15.870000	0.104100
0.03787644	15.870000	0.104200
0.03788799	15.870000	0.104200
0.03789924	15.870000	0.104200
0.03791088	15.870000	0.104200
0.03792243	15.870000	0.104200
0.03793441	15.950000	0.104400
0.03794575	15.950000	0.104400
0.03795743	15.950000	0.104400
0.03796912	15.950000	0.104400
0.03798050	15.950000	0.104400
0.03799235	15.950000	0.104400
0.03800389	15.950000	0.104600
0.03801582	15.950000	0.104600
0.03802693	15.950000	0.104600
0.03803851	15.950000	0.104600
0.03805015	15.950000	0.104600
0.03806184	15.950000	0.104600
0.03807347	15.950000	0.104700
0.03808501	15.950000	0.104700
0.03809662	15.950000	0.104700
0.03810808	15.950000	0.104300
0.03811979	15.950000	0.104300
0.03813131	15.950000	0.104300
0.03814315	16.020000	0.104500
0.03815456	16.020000	0.104500
0.03816618	16.020000	0.104500
0.03817769	16.020000	0.104500
0.03818934	16.020000	0.104600
0.03820103	16.020000	0.104600
0.03821229	16.020000	0.104600
0.03822407	16.020000	0.104300
0.03823542	16.020000	0.104300
0.03824707	16.020000	0.104400
0.03825872	16.020000	0.104400
0.03827037	16.020000	0.104400
0.03828201	15.950000	0.104400
0.03829341	15.950000	0.104400
0.03830515	15.950000	0.104400
0.03831663	16.020000	0.104500
0.03832825	16.020000	0.104500
0.03833971	16.020000	0.104500
0.03835137	16.020000	0.104500
0.03836301	16.020000	0.104500
0.03837447	16.020000	0.104500
0.03838598	16.020000	0.104600
0.03839753	16.020000	0.104600
0.03840936	16.020000	0.104600
0.03842078	16.020000	0.104900
0.03843233	16.020000	0.104900
0.03844387	16.020000	0.104900
0.03845550	16.020000	0.104700
0.03846696	16.020000	0.104700
0.03847865	16.020000	0.104700
0.03849007	16.020000	0.104700
0.03850178	16.020000	0.104700
0.03851333	16.020000	0.104700
0.03852499	16.020000	0.104700
0.03853638	15.950000	0.104500
0.03854802	15.950000	0.104500
0.03855965	15.950000	0.104400
0.03857130	15.950000	0.104400
0.03858285	15.950000	0.104400
0.03859447	15.950000	0.104500
0.03860594	15.950000	0.104500
0.03861741	15.950000	0.104500
0.03862916	15.950000	0.104000
0.03867567	15.870000	0.104000
0.03867714	15.870000	0.104000
0.03868714	15.870000	0.104000
0.03869863	15.870000	0.104000
0.03871009	15.870000	0.104000
0.03872222	15.870000	0.104000
0.03873321	15.870000	0.104400
0.03874487	15.870000	0.104400
0.03875654	15.870000	0.104400
0.03876791	15.870000	0.104500
0.03877951	15.870000	0.104500
0.03879109	15.870000	0.104500
0.03880252	15.870000	0.104600
0.03881444	15.870000	0.104600
0.03882596	15.870000	0.104600
0.03883737	15.870000	0.104600
0.03884889	15.870000	0.104600
0.03886065	15.870000	0.104600
0.03887215	15.870000	0.104600
0.03888352	15.870000	0.104600
0.03889528	15.870000	0.104600
0.03890700	15.870000	0.104500
0.03891838	15.870000	0.104500
0.03892995	15.870000	0.104500
0.03894155	15.950000	0.104800
0.03895314	15.950000	0.104800
0.03896455	15.950000	0.104800
0.03897631	15.950000	0.104400
0.03898777	15.950000	0.104400
0.03899932	15.950000	0.104400
0.03901108	15.950000	0.104400
0.03902289	16.020000	0.104500
0.03903413	16.020000	0.104500
0.03904572	15.950000	0.103900
0.03905762	15.950000	0.103900
0.03906900	15.950000	0.103900
0.03908057	16.020000	0.104000
0.03909226	16.020000	0.104000
0.03910400	16.020000	0.104000
0.03911525	16.020000	0.104100
0.03912696	16.020000	0.104100
0.03913837	16.020000	0.104100
0.03915013	16.020000	0.104200
0.03916172	16.020000	0.104200
0.03917332	16.020000	0.104200
0.03918473	16.020000	0.104200
0.03919640	16.020000	0.104400
0.03920788	16.020000	0.104400
0.03921948	16.020000	0.104100
0.03923137	16.020000	0.104100
0.03924278	16.020000	0.104100
0.03925417	15.950000	0.103900
0.03926566	15.950000	0.103900
0.03927719	15.950000	0.103900
0.03928882	16.020000	0.104100
0.03930079	16.020000	0.104100
0.03931212	16.020000	0.104100
0.03932372	16.020000	0.104100
0.03933530	16.020000	0.104100
0.03934691	16.020000	0.104100
0.03935841	16.020000	0.104100
0.03936999	16.020000	0.104400
0.03938175	16.020000	0.104400
0.03939331	16.020000	0.104400
0.03940477	16.020000	0.104400
0.03941632	16.020000	0.104400
0.03942789	16.020000	0.104400
0.03943954	16.020000	0.104400
0.03945130	16.020000	0.104400
0.03946250	16.020000	0.104200
0.03947403	16.020000	0.104200
0.03948568	16.020000	0.104200
0.03949770	16.020000	0.104200
0.03950900	15.950000	0.104000
0.03952036	15.950000	0.104000
0.03953220	16.020000	0.104300
0.03954414	16.020000	0.104300
0.03955532	16.020000	0.104300
0.03956715	16.020000	0.104100
0.03957859	16.020000	0.104100
0.03959016	16.020000	0.104100
0.03960163	15.950000	0.103900
0.03961323	15.950000	0.103900
0.03962476	15.950000	0.103900
0.03963652	15.870000	0.103900
0.03964810	15.870000	0.103900
0.03965970	15.870000	0.103900
0.03967120	15.870000	0.103900
0.03968273	16.020000	0.104300
0.03969462	16.020000	0.104300
0.03970606	15.950000	0.104200
0.03971780	15.950000	0.104200
0.03972910	15.950000	0.104200
0.03974079	15.950000	0.104100
0.03975248	15.950000	0.104100
0.03976399	15.950000	0.104100
0.03977576	15.950000	0.104300
0.03978726	15.950000	0.104300
0.03979904	15.950000	0.104300
0.03981062	16.020000	0.104500
0.03982219	16.020000	0.104500
0.03983359	16.020000	0.104500
0.03984514	16.020000	0.104500
0.03985686	16.020000	0.104300
0.03986831	16.020000	0.104300
0.03987999	15.950000	0.104400
0.03989147	15.950000	0.104400
0.03990304	15.950000	0.104400
0.03991476	16.020000	0.104300
0.03992615	16.020000	0.104300
0.03993779	16.020000	0.104300
0.03994931	15.950000	0.103900
0.03996104	15.950000	0.103900
0.03997258	15.950000	0.103900
0.03998446	15.950000	0.104000
0.03999605	15.950000	0.104000
0.04000764	15.950000	0.104000
0.04001940	16.020000	0.104000
0.04003152	16.020000	0.105000
0.04004288	16.020000	0.105000
0.04005466	15.950000	0.105100
0.04006645	15.950000	0.105100
0.04007750	15.950000	0.105100
0.04008894	15.950000	0.104100
0.04010031	15.950000	0.104100
0.04011194	15.950000	0.104100
0.04012370	15.950000	0.104300
0.04013517	15.950000	0.104300
0.04014662	15.950000	0.104300
0.04015841	15.950000	0.104300
0.04016988	15.950000	0.104300
0.04018154	15.950000	0.104300
0.04019308	16.020000	0.104400
0.04020469	16.020000	0.104400
0.04021635	16.020000	0.104400
0.04022794	29.390000	0.277000
0.04023938	29.390000	0.277000
0.04025119	29.390000	0.277000
0.04026256	29.320000	0.277100
0.04027442	29.320000	0.277100
0.04028601	29.320000	0.277100
0.04029769	29.390000	0.277400
0.04030918	29.390000	0.277400
0.04032056	29.390000	0.277400
0.04033251	29.390000	0.277100
0.04034410	29.390000	0.277100
0.04035565	29.390000	0.277100
0.04036713	29.390000	0.277400
0.04037902	29.390000	0.277400
0.04039041	29.390000	0.277400
0.04040205	15.870000	0.103400
0.04041392	15.870000	0.103400
0.04042509	15.870000	0.103400
0.04043703	15.800000	0.103100
0.04044851	15.800000	0.103100
0.04046019	15.800000	0.103100
0.04047162	15.800000	0.102900
0.04048317	15.800000	0.102900
0.04049494	15.800000	0.102900
0.04050647	15.800000	0.103100
0.04051795	15.800000	0.103100
0.04052951	15.800000	0.103100
0.04054103	15.800000	0.103000
0.04055266	15.800000	0.103000
0.04056457	15.800000	0.103000
0.04057617	15.870000	0.103100
0.04058777	15.870000	0.103100
0.04059938	15.870000	0.103100
0.04061101	15.800000	0.103200
0.04062267	15.800000	0.103200
0.04063413	15.800000	0.103200
0.04064591	15.800000	0.103100
0.04065770	15.800000	0.103100
0.04066954	15.800000	0.103100
0.04068087	15.800000	0.103000
0.04069235	15.800000	0.103000
0.04070402	15.800000	0.103000
0.04071567	15.800000	0.102800
0.04072723	15.800000	0.102800
0.04073934	15.800000	0.102800
0.04075091	15.800000	0.102400
0.04076215	15.800000	0.102400
0.04077397	15.800000	0.102400
0.04078565	15.800000	0.102300
0.04079715	15.800000	0.102300
0.04080885	15.800000	0.102300
0.04082039	15.800000	0.102300
0.04083194	15.800000	0.102300
0.04084361	15.800000	0.102400
0.04085520	15.800000	0.102400
0.04086700	15.800000	0.102400
0.04087845	15.800000	0.102400
0.04089005	15.800000	0.102400
0.04090181	15.800000	0.102400
0.04091352	15.800000	0.102400
0.04092532	15.800000	0.102400
0.04093693	15.800000	0.102400
0.04094836	15.800000	0.102400
0.04095999	15.800000	0.102300
0.04097162	15.800000	0.102300
0.04098307	15.800000	0.102300
0.04099477	15.800000	0.102600
0.04100653	15.800000	0.102600
0.04101807	15.800000	0.102700
0.04102966	15.800000	0.102700
0.04104115	15.800000	0.102700
0.04108775	15.800000	0.102600
0.04108977	15.800000	0.102600
0.04113421	15.800000	0.102500
0.04113569	15.800000	0.102500
0.04114575	15.800000	0.102500
0.04115737	15.800000	0.102500
0.04116890	15.730000	0.102400
0.04118052	15.730000	0.102400
0.04119207	15.660000	0.102100
0.04120380	15.660000	0.102100
0.04121521	15.660000	0.102100
0.04122692	15.660000	0.102100
0.04123845	15.590000	0.101900
0.04125002	15.590000	0.101900
0.04126167	15.590000	0.101900
0.04127338	15.590000	0.101900
0.04128486	15.590000	0.101900
0.04129639	15.590000	0.101900
0.04130794	15.590000	0.102100
0.04131951	15.590000	0.102100
0.04133106	15.730000	0.101900
0.04134287	15.730000	0.101900
0.04135416	15.730000	0.101900
0.04136568	15.660000	0.102100
0.04137752	15.660000	0.102100
0.04138885	15.660000	0.102100
0.04140054	15.660000	0.102100
0.04141226	15.660000	0.101900
0.04142380	15.660000	0.101900
0.04143530	15.660000	0.101900
0.04144713	15.730000	0.102300
0.04145873	15.730000	0.102300
0.04147022	15.730000	0.102300
0.04148182	15.800000	0.102500
0.04149341	15.800000	0.102500
0.04150491	15.870000	0.102600
0.04151650	15.870000	0.102600
0.04152816	15.870000	0.102600
0.04154038	15.800000	0.102300
0.04155135	15.800000	0.102300
0.04156301	15.800000	0.102300
0.04157450	15.800000	0.102300
0.04158606	15.800000	0.102300
0.04159764	15.800000	0.102300
0.04164441	15.800000	0.102300
0.04164588	15.800000	0.102300
0.04165566	15.800000	0.102300
0.04166697	15.800000	0.102300
0.04167856	15.800000	0.102200
0.04169031	15.800000	0.102200
0.04170172	15.800000	0.102200
0.04171350	15.800000	0.102200
0.04172509	15.800000	0.102100
0.04173662	15.800000	0.102100
0.04174833	15.800000	0.102100
0.04175995	15.730000	0.102300
0.04177155	15.730000	0.102300
0.04178356	15.730000	0.102300
0.04179481	15.730000	0.102400
0.04180650	15.730000	0.102400
0.04181782	15.730000	0.102400
0.04182961	15.800000	0.102400
0.04184152	15.800000	0.102400
0.04185296	15.730000	0.101800
0.04186458	15.730000	0.101800
0.04187606	15.730000	0.101800
0.04188774	15.730000	0.101800
0.04189940	15.730000	0.105000
0.04191087	15.730000	0.105000
0.04192252	15.730000	0.105000
0.04193398	15.730000	0.104200
0.04194558	15.730000	0.104200
0.04195771	15.730000	0.104200
0.04196913	15.800000	0.105000
0.04198049	15.800000	0.105000
0.04199234	15.800000	0.104700
0.04200381	15.800000	0.104700
0.04201545	15.800000	0.104700
0.04202704	15.800000	0.102100
0.04203855	15.800000	0.102100
0.04205000	15.800000	0.102100
0.04206168	15.800000	0.102100
0.04207353	15.800000	0.102700
0.04208520	15.800000	0.102700
0.04209688	15.800000	0.102700
0.04210846	15.660000	0.102200
0.04211995	15.660000	0.102200
0.04213152	15.660000	0.102200
0.04214307	15.660000	0.102200
0.04215456	15.660000	0.102200
0.04216630	15.590000	0.102200
0.04217791	15.590000	0.102200
0.04218961	15.590000	0.102200
0.04220103	15.590000	0.103400
0.04221270	15.590000	0.103400
0.04222421	15.590000	0.103400
0.04223584	15.590000	0.103400
0.04224755	15.730000	0.102600
0.04225894	15.730000	0.102600
0.04227059	15.730000	0.102600
0.04228227	15.800000	0.103500
0.04229396	15.800000	0.103500
0.04230589	15.800000	0.103500
0.04231722	15.800000	0.103600
0.04232889	15.800000	0.103600
0.04234057	15.800000	0.103600
0.04235192	15.800000	0.103600
0.04236350	15.800000	0.103600
0.04237502	15.800000	0.102400
0.04238669	15.800000	0.102400
0.04239867	15.800000	0.102400
0.04240992	15.800000	0.102400
0.04242150	15.800000	0.102200
0.04243322	15.800000	0.102200
0.04244466	15.800000	0.102200
0.04245630	15.730000	0.102300
0.04246788	15.730000	0.102300
0.04247939	15.730000	0.102300
0.04249102	15.730000	0.102500
0.04250242	15.730000	0.102500
0.04251412	15.800000	0.103500
0.04252578	15.800000	0.103500
0.04253725	15.800000	0.103500
0.04254882	15.800000	0.102400
0.04256054	15.800000	0.102400
0.04257191	15.800000	0.102400
0.04258354	15.800000	0.102400
0.04259534	15.800000	0.102500
0.04260686	15.800000	0.102500
0.04261859	15.800000	0.102500
0.04263015	15.800000	0.102300
0.04264170	15.800000	0.102300
0.04265354	15.800000	0.102400
0.04266509	15.800000	0.102400
0.04267667	15.800000	0.102400
0.04268826	15.730000	0.102400
0.04270012	15.730000	0.102400
0.04271169	15.730000	0.102400
0.04272321	15.800000	0.102500
0.04273483	15.800000	0.102500
0.04274640	15.800000	0.102500
0.04275769	15.800000	0.102500
0.04276964	15.800000	0.102600
0.04278118	15.800000	0.102600
0.04279292	15.800000	0.102600
0.04280436	15.730000	0.102500
0.04281610	15.730000	0.102500
0.04282777	15.730000	0.102400
0.04283953	15.730000	0.102400
0.04285150	15.730000	0.102400
0.04286273	15.730000	0.102400
0.04287432	15.730000	0.102400
0.04288605	15.730000	0.102400
0.04289750	15.730000	0.102200
0.04290902	15.730000	0.102200
0.04292087	15.730000	0.102200
0.04293212	15.730000	0.102200
0.04294374	15.800000	0.102600
0.04295530	15.800000	0.102600
0.04296692	15.800000	0.102600
0.04297832	15.800000	0.101900
0.04298992	15.800000	0.101900
0.04300166	15.800000	0.102100
0.04301319	15.800000	0.102100
0.04302470	15.800000	0.102100
0.04303641	15.800000	0.101800
0.04304791	15.800000	0.101800
0.04305953	15.800000	0.101800
0.04307117	15.800000	0.101800
0.04308284	15.800000	0.101800
0.04309485	15.800000	0.101800
0.04310620	15.800000	0.101800
0.04311816	15.730000	0.101800
0.04312953	15.730000	0.101800
0.04314106	15.730000	0.102000
0.04315258	15.730000	0.102000
0.04316433	15.730000	0.102000
0.04317568	15.730000	0.101900
0.04318750	15.730000	0.101900
0.04319906	15.730000	0.101900
0.04321042	15.730000	0.102100
0.04322209	15.730000	0.102100
0.04323372	15.730000	0.102100
0.04324550	15.730000	0.102100
0.04325698	15.800000	0.102000
0.04326888	15.800000	0.102000
0.04328032	15.800000	0.102000
0.04329189	15.800000	0.102000
0.04330369	15.800000	0.102000
0.04331528	15.800000	0.102000
0.04332686	15.800000	0.102000
0.04333859	15.800000	0.102000
0.04335028	15.800000	0.102600
0.04336184	15.800000	0.102600
0.04337366	15.800000	0.102600
0.04338550	15.800000	0.103000
0.04339656	15.800000	0.103000
0.04340832	15.800000	0.103000
0.04342025	15.800000	0.103000
0.04343166	15.800000	0.103100
0.04344340	15.800000	0.103100
0.04345530	15.800000	0.103100
0.04346691	15.800000	0.103200
0.04347839	15.800000	0.103200
0.04349029	15.800000	0.103300
0.04350168	15.800000	0.103300
0.04351351	15.800000	0.103300
0.04352485	15.800000	0.103500
0.04353624	15.800000	0.103500
0.04354808	15.800000	0.103500
0.04355941	15.800000	0.102000
0.04357125	15.800000	0.102000
0.04358260	15.800000	0.102000
0.04359456	15.800000	0.102000
0.04360618	15.730000	0.101900
0.04361773	15.730000	0.101900
0.04362935	15.800000	0.101900
0.04364120	15.800000	0.101900
0.04365256	15.800000	0.101900
0.04366426	15.730000	0.102000
0.04367631	15.730000	0.102000
0.04368764	15.730000	0.102000
0.04369924	15.730000	0.101900
0.04371120	15.730000	0.101900
0.04372279	15.730000	0.101900
0.04373424	15.730000	0.101900
0.04374626	15.730000	0.101900
0.04375749	15.730000	0.101900
0.04376902	15.800000	0.102400
0.04378068	15.800000	0.102400
0.04379229	15.800000	0.102400
0.04380420	15.800000	0.102400
0.04381557	15.800000	0.102400
0.04382800	15.800000	0.102400
0.04383877	15.730000	0.103200
0.04385034	15.730000	0.103200
0.04386187	15.730000	0.103200
0.04387355	15.730000	0.102700
0.04388499	15.730000	0.102700
0.04389670	15.730000	0.102700
0.04390860	15.800000	0.103100
0.04391983	15.800000	0.103100
0.04393171	15.800000	0.103100
0.04394306	15.800000	0.103100
0.04395461	15.800000	0.101600
0.04396706	15.800000	0.101600
0.04397803	15.800000	0.102100
0.04398994	15.800000	0.102100
0.04400148	15.800000	0.102100
0.04401316	15.870000	0.102200
0.04402466	15.870000	0.102200
0.04403620	15.870000	0.102200
0.04404771	15.870000	0.102400
0.04405925	15.870000	0.102400
0.04407097	15.870000	0.102400
0.04408250	15.870000	0.102200
0.04409453	15.870000	0.102200
0.04410567	15.870000	0.102200
0.04411700	15.870000	0.102200
0.04412892	15.800000	0.102100
0.04414036	15.800000	0.102100
0.04415203	15.800000	0.102300
0.04416391	15.800000	0.102300
0.04417575	15.800000	0.102300
0.04418711	15.800000	0.102000
0.04419897	15.800000	0.102000
0.04421041	15.800000	0.102000
0.04422171	15.730000	0.101800
0.04423337	15.730000	0.101800
0.04424505	15.730000	0.101800
0.04425659	15.730000	0.101000
0.04426807	15.730000	0.101000
0.04427976	15.800000	0.101000
0.04429159	15.800000	0.102200
0.04430301	15.800000	0.102200
0.04431487	15.800000	0.102200
0.04432602	15.800000	0.102600
0.04433781	15.800000	0.102600
0.04434954	15.800000	0.102600
0.04436133	15.800000	0.102800
0.04437264	15.800000	0.102800
0.04438428	15.800000	0.102800
0.04439587	15.800000	0.102800
0.04440731	15.800000	0.102800
0.04441911	15.800000	0.102800
0.04443056	15.730000	0.102500
0.04444225	15.730000	0.102500
0.04445390	15.730000	0.103100
0.04446545	15.730000	0.103100
0.04447681	15.730000	0.103100
0.04448844	15.730000	0.103100
0.04449998	15.370000	0.100500
