#Measurement data
#08.05.2022 14:09:48

#Time (days)	Power (W)	Current (A)
0.000002	25.170000	0.215500
0.000015	25.100000	0.214200
0.000026	25.100000	0.214200
0.000038	25.100000	0.213500
0.000050	25.100000	0.213500
0.000061	25.100000	0.213500
0.000073	25.170000	0.214100
0.000084	25.170000	0.214100
0.000096	25.170000	0.214100
0.000107	25.170000	0.214900
0.000119	25.170000	0.214900
0.000131	25.170000	0.214900
0.000142	25.100000	0.216100
0.000154	25.100000	0.216100
0.000165	25.100000	0.216100
0.000177	25.100000	0.216100
0.000188	25.100000	0.215100
0.000201	25.100000	0.215100
0.000212	25.030000	0.215000
0.000223	25.030000	0.215000
0.000235	25.030000	0.215000
0.000247	25.030000	0.214300
0.000258	25.030000	0.214300
0.000270	25.030000	0.214300
0.000281	25.100000	0.214800
0.000293	25.100000	0.214800
0.000304	25.100000	0.214800
0.000316	25.030000	0.216100
0.000327	25.030000	0.216100
0.000339	25.030000	0.216100
0.000351	25.030000	0.216100
0.000362	25.030000	0.216100
0.000374	25.030000	0.216100
0.000385	24.670000	0.214100
0.000397	24.670000	0.214100
0.000409	24.670000	0.214100
0.000420	24.670000	0.213700
0.000432	24.670000	0.213700
0.000443	24.670000	0.213700
0.000455	24.390000	0.212300
0.000467	24.390000	0.212300
0.000478	24.390000	0.212300
0.000490	23.960000	0.208600
0.000502	23.960000	0.208600
0.000514	24.240000	0.210900
0.000526	24.240000	0.210900
0.000537	24.240000	0.210900
0.000549	24.240000	0.210900
0.000560	24.240000	0.211700
0.000572	24.240000	0.211700
0.000583	24.240000	0.211700
0.000595	24.310000	0.211200
0.000607	24.310000	0.211200
0.000618	24.310000	0.211200
0.000630	24.240000	0.209300
0.000641	24.240000	0.209300
0.000653	24.240000	0.209300
0.000665	24.240000	0.208800
0.000676	24.240000	0.208800
0.000688	24.240000	0.208800
0.000699	24.240000	0.208100
0.000711	24.240000	0.208100
0.000723	24.240000	0.208100
0.000734	24.030000	0.207200
0.000746	24.030000	0.207200
0.000757	24.030000	0.207200
0.000769	24.810000	0.213900
0.000780	24.810000	0.213900
0.000792	24.810000	0.213900
0.000804	24.890000	0.217100
0.000815	24.890000	0.217100
0.000827	24.890000	0.217100
0.000838	24.890000	0.215400
0.000850	24.890000	0.215400
0.000862	24.890000	0.215400
0.000873	24.890000	0.216000
0.000885	24.890000	0.216000
0.000896	24.890000	0.216000
0.000908	24.890000	0.214400
0.000920	24.890000	0.214400
0.000932	24.890000	0.214400
0.000943	24.810000	0.212900
0.000955	24.810000	0.212900
0.000966	24.810000	0.212900
0.000978	24.810000	0.214600
0.000990	24.810000	0.214600
0.001001	24.890000	0.214600
0.001013	24.890000	0.211000
0.001024	24.890000	0.211000
0.001036	24.890000	0.211000
0.001048	24.890000	0.211100
0.001059	24.890000	0.211100
0.001071	24.890000	0.211100
0.001082	24.890000	0.212000
0.001094	24.890000	0.212000
0.001106	24.890000	0.212000
0.001117	24.890000	0.212900
0.001129	24.890000	0.212900
0.001141	24.890000	0.212900
0.001152	24.810000	0.213200
0.001164	24.810000	0.213200
0.001175	24.890000	0.214200
0.001187	24.890000	0.214200
0.001198	24.890000	0.214200
0.001210	24.890000	0.214200
0.001222	24.810000	0.212200
0.001233	24.810000	0.212200
0.001245	24.810000	0.212200
0.001256	24.810000	0.213300
0.001268	24.810000	0.213300
0.001279	24.810000	0.213300
0.001291	24.890000	0.212800
0.001302	24.890000	0.212800
0.001314	24.890000	0.212800
0.001326	24.810000	0.213100
0.001337	24.810000	0.213100
0.001349	24.810000	0.213600
0.001360	24.810000	0.213600
0.001372	24.810000	0.213600
0.001384	24.810000	0.213600
0.001395	24.890000	0.213000
0.001407	24.890000	0.213000
0.001419	24.890000	0.213000
0.001430	24.810000	0.214700
0.001442	24.810000	0.214700
0.001454	24.810000	0.214700
0.001465	24.810000	0.215600
0.001477	24.810000	0.215600
0.001488	24.810000	0.215600
0.001500	24.890000	0.214100
0.001512	24.890000	0.214100
0.001523	24.890000	0.215000
0.001535	24.890000	0.215000
0.001546	24.890000	0.215000
0.001558	24.890000	0.215000
0.001570	24.810000	0.214200
0.001581	24.810000	0.214200
0.001593	24.810000	0.214200
0.001604	24.810000	0.214200
0.001616	24.810000	0.214200
0.001628	24.810000	0.214200
0.001639	24.810000	0.213400
0.001651	24.810000	0.213400
0.001662	24.810000	0.213400
0.001674	24.810000	0.213100
0.001686	24.810000	0.213100
0.001697	24.890000	0.213400
0.001709	24.890000	0.213400
0.001720	24.890000	0.213400
0.001732	24.890000	0.213400
0.001744	24.890000	0.214700
0.001755	24.890000	0.214700
0.001767	24.890000	0.214700
0.001778	24.890000	0.214300
0.001790	24.890000	0.214300
0.001801	24.890000	0.214300
0.001813	24.810000	0.214500
0.001824	24.810000	0.214500
0.001836	24.890000	0.213800
0.001848	24.890000	0.213800
0.001859	24.890000	0.213800
0.001871	24.890000	0.213300
0.001883	24.890000	0.213300
0.001894	24.890000	0.213300
0.001906	24.890000	0.213300
0.001917	24.810000	0.212700
0.001929	24.810000	0.212700
0.001941	24.810000	0.212700
0.001952	24.890000	0.213700
0.001964	24.890000	0.213700
0.001975	24.890000	0.213700
0.001987	24.890000	0.213700
0.001998	24.890000	0.213700
0.002010	24.890000	0.212700
0.002022	24.890000	0.212700
0.002033	24.890000	0.212700
0.002045	24.890000	0.212700
0.002056	24.890000	0.212700
0.002068	24.890000	0.212700
0.002079	24.890000	0.212700
0.002091	24.890000	0.212200
0.002103	24.890000	0.212200
0.002114	24.890000	0.212200
0.002126	24.810000	0.212400
0.002137	24.810000	0.212400
0.002149	24.890000	0.213000
0.002160	24.890000	0.213000
0.002172	24.890000	0.213000
0.002184	24.890000	0.212800
0.002195	24.890000	0.212800
0.002207	24.890000	0.212800
0.002218	24.890000	0.212800
0.002230	24.890000	0.213300
0.002242	24.890000	0.213300
0.002253	24.890000	0.213300
0.002265	24.810000	0.212700
0.002276	24.810000	0.212700
0.002288	24.810000	0.212700
0.002300	24.810000	0.212400
0.002312	24.810000	0.212400
0.002323	24.810000	0.212000
0.002335	24.810000	0.212000
0.002347	24.810000	0.212000
0.002359	24.890000	0.211900
0.002370	24.890000	0.211900
0.002381	24.890000	0.211900
0.002393	24.890000	0.211900
0.002405	24.890000	0.212600
0.002416	24.890000	0.212600
0.002428	24.890000	0.212600
0.002440	24.810000	0.212100
0.002451	24.810000	0.212100
0.002463	24.810000	0.212100
0.002474	24.810000	0.211900
0.002486	24.810000	0.211900
0.002498	24.890000	0.211500
0.002509	24.890000	0.211500
0.002521	24.890000	0.211500
0.002532	24.810000	0.210900
0.002544	24.810000	0.210900
0.002555	24.810000	0.210900
0.002567	24.810000	0.210900
0.002579	24.810000	0.211500
0.002590	24.810000	0.211500
0.002602	24.810000	0.211500
0.002613	24.810000	0.212000
0.002625	24.810000	0.212000
0.002636	24.890000	0.212900
0.002648	24.890000	0.212900
0.002659	24.890000	0.212900
0.002671	24.810000	0.213100
0.002683	24.810000	0.213100
0.002694	24.810000	0.213100
0.002706	24.810000	0.213100
0.002718	24.890000	0.214000
0.002730	24.890000	0.214000
0.002741	24.890000	0.214000
0.002753	24.890000	0.213800
0.002764	24.890000	0.213800
0.002776	24.890000	0.213800
0.002788	24.890000	0.212800
0.002799	24.890000	0.212800
0.002811	24.810000	0.210700
0.002822	24.810000	0.210700
0.002834	24.810000	0.210700
0.002845	24.810000	0.209500
0.002857	24.810000	0.209500
0.002870	24.810000	0.209500
0.002881	24.810000	0.209500
0.002892	24.810000	0.209700
0.002904	24.810000	0.209700
0.002915	24.810000	0.209700
0.002927	24.890000	0.209900
0.002938	24.890000	0.209900
0.002950	24.890000	0.209900
0.002962	24.890000	0.210500
0.002973	24.890000	0.210500
0.002985	24.810000	0.211000
0.002997	24.810000	0.211000
0.003008	24.810000	0.211000
0.003020	24.810000	0.211100
0.003031	24.810000	0.211100
0.003043	24.810000	0.211100
0.003055	24.810000	0.210700
0.003067	24.810000	0.210700
0.003078	24.810000	0.210700
0.003090	24.810000	0.210700
0.003102	24.890000	0.211600
0.003113	24.890000	0.211600
0.003125	24.890000	0.211600
0.003136	24.890000	0.211200
0.003148	24.890000	0.211200
0.003159	24.890000	0.211000
0.003171	24.890000	0.211000
0.003182	24.890000	0.211000
0.003194	24.890000	0.212300
0.003206	24.890000	0.212300
0.003217	24.890000	0.212300
0.003229	24.890000	0.212300
0.003240	24.890000	0.212000
0.003252	24.890000	0.212000
0.003263	24.890000	0.212000
0.003275	24.890000	0.211500
0.003287	24.890000	0.211500
0.003298	24.810000	0.210900
0.003310	24.810000	0.210900
0.003321	24.810000	0.210900
0.003333	24.890000	0.212000
0.003344	24.890000	0.212000
0.003356	24.890000	0.212000
0.003368	24.890000	0.212400
0.003379	24.890000	0.212400
0.003391	24.890000	0.212400
0.003402	24.890000	0.212400
0.003414	24.890000	0.211600
0.003426	24.890000	0.211600
0.003437	24.890000	0.211600
0.003449	24.890000	0.210900
0.003461	24.890000	0.210900
0.003472	24.810000	0.210700
0.003484	24.810000	0.210700
0.003495	24.810000	0.210700
0.003507	24.890000	0.211600
0.003519	24.890000	0.211600
0.003530	24.890000	0.211600
0.003542	24.890000	0.212000
0.003553	24.890000	0.212000
0.003565	24.890000	0.212000
0.003577	24.890000	0.212000
0.003588	24.890000	0.213000
0.003600	24.890000	0.213000
0.003612	24.810000	0.213000
0.003623	24.810000	0.213600
0.003635	24.810000	0.213600
0.003647	24.810000	0.213800
0.003658	24.810000	0.213800
0.003669	24.810000	0.213800
0.003681	24.890000	0.213400
0.003693	24.890000	0.213400
0.003704	24.890000	0.213400
0.003716	24.810000	0.213800
0.003727	24.810000	0.213800
0.003739	24.810000	0.213800
0.003751	24.810000	0.213800
0.003762	24.810000	0.213300
0.003774	24.810000	0.213300
0.003785	24.890000	0.212500
0.003798	24.890000	0.212500
0.003809	24.890000	0.212500
0.003820	24.890000	0.212800
0.003832	24.890000	0.212800
0.003844	24.890000	0.212800
0.003855	24.890000	0.212000
0.003867	24.890000	0.212000
0.003878	24.890000	0.212000
0.003890	24.890000	0.211700
0.003902	24.890000	0.211700
0.003913	24.890000	0.211700
0.003925	24.890000	0.211700
0.003937	24.810000	0.211300
0.003948	24.810000	0.211300
0.003960	24.890000	0.211800
0.003972	24.890000	0.211800
0.003983	24.890000	0.211800
0.003994	24.810000	0.211500
0.004006	24.810000	0.211500
0.004018	24.810000	0.211500
0.004030	24.810000	0.210300
0.004042	24.810000	0.210300
0.004053	24.810000	0.210300
0.004065	24.810000	0.211600
0.004077	24.810000	0.211600
0.004088	24.810000	0.211600
0.004100	24.810000	0.211600
0.004111	24.810000	0.211800
0.004123	24.810000	0.211800
0.004135	24.810000	0.213000
0.004146	24.810000	0.213000
0.004158	24.810000	0.213000
0.004169	24.810000	0.212900
0.004181	24.810000	0.212900
0.004192	24.810000	0.212900
0.004204	24.810000	0.213200
0.004216	24.810000	0.213200
0.004227	24.810000	0.213200
0.004239	23.310000	0.201100
0.004250	23.310000	0.201100
0.004262	23.310000	0.201100
0.004273	23.810000	0.204200
0.004285	23.810000	0.204200
0.004297	23.810000	0.204200
0.004309	23.810000	0.203500
0.004320	23.810000	0.203500
0.004331	23.810000	0.203500
0.004343	23.740000	0.203600
0.004354	23.740000	0.203600
0.004366	23.740000	0.203600
0.004378	23.810000	0.203800
0.004389	23.810000	0.203800
0.004401	23.810000	0.203800
0.004412	23.810000	0.203800
0.004424	23.810000	0.204200
0.004436	23.810000	0.204200
0.004447	23.380000	0.200900
0.004459	23.380000	0.200900
0.004470	23.380000	0.200900
0.004482	23.380000	0.201500
0.004494	23.380000	0.201500
0.004506	23.380000	0.201500
0.004517	23.460000	0.201800
0.004528	23.460000	0.201800
0.004540	23.460000	0.201800
0.004551	23.460000	0.202700
0.004563	23.460000	0.202700
0.004574	23.460000	0.202700
0.004586	23.460000	0.202700
0.004598	23.460000	0.202500
0.004609	23.460000	0.202500
0.004621	23.600000	0.200900
0.004633	23.600000	0.200900
0.004644	23.600000	0.200900
0.004655	23.740000	0.204900
0.004667	23.740000	0.204900
0.004679	23.740000	0.204900
0.004690	23.740000	0.204200
0.004702	23.740000	0.204200
0.004713	23.740000	0.204200
0.004725	23.740000	0.205100
0.004737	23.740000	0.205100
0.004748	23.740000	0.205100
0.004760	23.740000	0.205100
0.004771	23.740000	0.205000
0.004783	23.740000	0.205000
0.004795	23.880000	0.205800
0.004806	23.880000	0.205800
0.004818	23.880000	0.205800
0.004829	23.880000	0.205400
0.004841	23.880000	0.205400
0.004852	23.880000	0.205400
0.004864	23.960000	0.205300
0.004876	23.960000	0.205300
0.004887	23.960000	0.205300
0.004899	23.960000	0.205800
0.004910	23.960000	0.205800
0.004922	23.960000	0.205800
0.004933	23.960000	0.205500
0.004945	23.960000	0.205500
0.004957	23.960000	0.205500
0.004968	23.880000	0.204800
0.004980	23.880000	0.204800
0.004991	23.880000	0.204800
0.005003	23.880000	0.204100
0.005015	23.880000	0.204100
0.005026	23.880000	0.204100
0.005038	23.880000	0.203900
0.005049	23.880000	0.203900
0.005061	23.880000	0.203900
0.005072	23.880000	0.203900
0.005084	23.880000	0.204900
0.005096	23.880000	0.204900
0.005107	23.880000	0.204500
0.005119	23.880000	0.204500
0.005130	23.880000	0.204500
0.005142	23.880000	0.205500
0.005153	23.880000	0.205500
0.005165	23.880000	0.205500
0.005177	23.880000	0.205500
0.005188	23.880000	0.205500
0.005200	23.880000	0.205500
0.005211	23.530000	0.202700
0.005223	23.530000	0.202700
0.005234	23.530000	0.202700
0.005246	23.530000	0.202700
0.005258	23.460000	0.202300
0.005269	23.460000	0.202300
0.005281	23.530000	0.202200
0.005292	23.530000	0.202200
0.005304	23.530000	0.202200
0.005315	23.530000	0.202100
0.005327	23.530000	0.202100
0.005340	23.530000	0.202100
0.005350	23.530000	0.202600
0.005362	23.530000	0.202600
0.005373	23.530000	0.202600
0.005385	23.880000	0.205200
0.005397	23.880000	0.205200
0.005408	23.880000	0.205200
0.005420	23.960000	0.205800
0.005431	23.960000	0.205800
0.005443	23.960000	0.205800
0.005454	23.960000	0.206600
0.005466	23.960000	0.206600
0.005478	23.960000	0.206600
0.005489	23.960000	0.206600
0.005501	23.960000	0.206600
0.005513	23.960000	0.206600
0.005524	23.960000	0.206400
0.005536	23.960000	0.206400
0.005547	23.960000	0.206400
0.005559	23.380000	0.202500
0.005570	23.380000	0.202500
0.005582	23.380000	0.202500
0.005594	23.380000	0.202300
0.005605	23.380000	0.202300
0.005617	23.380000	0.202300
0.005628	23.380000	0.202400
0.005640	23.380000	0.202400
0.005651	23.380000	0.202400
0.005663	23.380000	0.203600
0.005675	23.380000	0.203600
0.005686	23.380000	0.203600
0.005698	23.380000	0.203400
0.005709	23.380000	0.203400
0.005721	23.380000	0.203400
0.005733	23.380000	0.203400
0.005745	23.810000	0.206100
0.005756	23.810000	0.206100
0.005767	23.810000	0.205600
0.005779	23.810000	0.205600
0.005791	23.810000	0.205600
0.005802	23.810000	0.205600
0.005814	23.810000	0.205600
0.005825	23.810000	0.205600
0.005837	23.810000	0.206500
0.005848	23.810000	0.206500
0.005860	23.810000	0.206500
0.005872	23.810000	0.205900
0.005883	23.810000	0.205900
0.005895	23.810000	0.205800
0.005907	23.810000	0.205800
0.005918	23.810000	0.205800
0.005930	23.810000	0.205800
0.005941	23.880000	0.209800
0.005953	23.880000	0.209800
0.005965	23.880000	0.209800
0.005976	24.030000	0.208600
0.005988	24.030000	0.208600
0.005999	24.030000	0.208600
0.006011	24.030000	0.212200
0.006022	24.030000	0.212200
0.006034	24.030000	0.212200
0.006046	24.030000	0.210800
0.006057	24.030000	0.210800
0.006069	24.030000	0.210800
0.006080	24.030000	0.205500
0.006092	24.030000	0.205500
0.006103	24.030000	0.205500
0.006115	24.030000	0.205400
0.006127	24.030000	0.205400
0.006138	24.030000	0.205400
0.006150	23.670000	0.203200
0.006161	23.670000	0.203200
0.006173	23.670000	0.203200
0.006185	23.670000	0.204000
0.006196	23.670000	0.204000
0.006208	23.670000	0.204000
0.006220	23.670000	0.202800
0.006231	23.670000	0.202800
0.006243	23.670000	0.202800
0.006254	23.740000	0.203000
0.006266	23.740000	0.203000
0.006277	23.740000	0.203000
0.006289	23.810000	0.206700
0.006300	23.810000	0.206700
0.006312	23.810000	0.206700
0.006323	24.030000	0.204400
0.006335	24.030000	0.204400
0.006347	24.030000	0.204400
0.006358	24.030000	0.204400
0.006370	24.030000	0.204400
0.006381	24.030000	0.204400
0.006393	23.960000	0.204900
0.006405	23.960000	0.204900
0.006416	23.960000	0.204900
0.006428	23.960000	0.205400
0.006439	23.960000	0.205400
0.006451	23.960000	0.205400
0.006462	23.960000	0.206300
0.006474	23.960000	0.206300
0.006486	23.960000	0.206300
0.006497	24.030000	0.206300
0.006509	24.030000	0.206300
0.006520	24.030000	0.206300
0.006532	23.960000	0.205800
0.006544	23.960000	0.205800
0.006555	24.030000	0.206100
0.006567	24.030000	0.206100
0.006578	24.030000	0.206100
0.006590	24.030000	0.206100
0.006601	24.030000	0.205200
0.006613	24.030000	0.205200
0.006624	24.030000	0.205200
0.006636	24.030000	0.205800
0.006648	24.030000	0.205800
0.006659	24.030000	0.205800
0.006671	24.030000	0.205400
0.006683	24.030000	0.205400
0.006694	24.030000	0.205400
0.006706	24.100000	0.206100
0.006717	24.100000	0.206100
0.006729	24.100000	0.206100
0.006740	24.100000	0.206300
0.006752	24.100000	0.206300
0.006764	24.100000	0.206300
0.006775	24.100000	0.205600
0.006787	24.100000	0.205600
0.006798	24.100000	0.205600
0.006810	24.100000	0.205600
0.006821	24.100000	0.205600
0.006833	24.100000	0.205600
0.006845	24.100000	0.206800
0.006856	24.100000	0.206800
0.006868	24.100000	0.206800
0.006879	24.100000	0.207100
0.006891	24.100000	0.207100
0.006902	24.100000	0.207100
0.006914	24.170000	0.206500
0.006926	24.170000	0.206500
0.006937	24.170000	0.206500
0.006949	24.100000	0.206600
0.006960	24.100000	0.206600
0.006972	24.100000	0.206600
0.006983	24.100000	0.206500
0.006995	24.100000	0.206500
0.007007	24.100000	0.206500
0.007018	24.170000	0.206900
0.007030	24.170000	0.206900
0.007041	24.170000	0.206900
0.007053	24.170000	0.206900
0.007065	24.170000	0.206100
0.007076	24.170000	0.206100
0.007088	24.240000	0.207100
0.007099	24.240000	0.207100
0.007111	24.240000	0.207100
0.007122	24.240000	0.206900
0.007134	24.240000	0.206900
0.007146	24.240000	0.206900
0.007157	24.240000	0.207600
0.007169	24.240000	0.207600
0.007180	24.240000	0.207600
0.007192	24.240000	0.207300
0.007203	24.240000	0.207300
0.007215	24.240000	0.207300
0.007226	24.100000	0.205800
0.007238	24.100000	0.205800
0.007250	24.100000	0.205800
0.007261	24.030000	0.205200
0.007273	24.030000	0.205200
0.007284	24.030000	0.205200
0.007296	24.100000	0.206100
0.007308	24.100000	0.206100
0.007319	24.100000	0.206100
0.007331	24.030000	0.205600
0.007342	24.030000	0.205600
0.007354	24.030000	0.205600
0.007365	24.030000	0.206200
0.007377	24.030000	0.206200
0.007389	24.030000	0.206200
0.007400	24.030000	0.205600
0.007412	24.030000	0.205600
0.007423	24.030000	0.205600
0.007435	24.030000	0.205300
0.007446	24.030000	0.205300
0.007458	24.030000	0.205300
0.007470	24.030000	0.205500
0.007481	24.030000	0.205500
0.007493	24.030000	0.205500
0.007504	24.030000	0.205400
0.007516	24.030000	0.205400
0.007527	24.030000	0.205400
0.007539	24.030000	0.206100
0.007551	24.030000	0.206100
0.007562	24.030000	0.206100
0.007574	24.100000	0.206100
0.007586	24.100000	0.206100
0.007597	24.100000	0.206100
0.007609	24.030000	0.204900
0.007620	24.030000	0.204900
0.007632	24.030000	0.204900
0.007643	24.240000	0.206400
0.007655	24.240000	0.206400
0.007667	24.240000	0.206400
0.007678	24.240000	0.207800
0.007690	24.240000	0.207800
0.007701	24.310000	0.207800
0.007713	24.310000	0.207100
0.007724	24.310000	0.207100
0.007736	24.310000	0.207100
0.007747	24.310000	0.207100
0.007759	24.310000	0.207100
0.007771	24.310000	0.207100
0.007782	24.240000	0.208300
0.007794	24.240000	0.208300
0.007806	24.240000	0.208300
0.007817	23.740000	0.204200
0.007829	23.740000	0.204200
0.007840	23.740000	0.204200
0.007852	23.670000	0.204100
0.007863	23.670000	0.204100
0.007875	23.670000	0.205100
0.007887	23.670000	0.205100
0.007898	23.670000	0.205100
0.007910	23.670000	0.205100
0.007921	23.670000	0.204900
0.007933	23.670000	0.204900
0.007945	23.670000	0.204900
0.007956	23.740000	0.204600
0.007968	23.740000	0.204600
0.007979	23.740000	0.204600
0.007991	23.880000	0.205000
0.008002	23.880000	0.205000
0.008014	23.880000	0.205000
0.008026	23.880000	0.205400
0.008037	23.880000	0.205400
0.008049	23.880000	0.205400
0.008060	23.880000	0.205100
0.008072	23.880000	0.205100
0.008083	23.880000	0.205100
0.008095	23.880000	0.204600
0.008107	23.880000	0.204600
0.008118	23.880000	0.204600
0.008130	23.880000	0.204400
0.008141	23.880000	0.204400
0.008153	23.880000	0.204400
0.008164	23.880000	0.204600
0.008176	23.880000	0.204600
0.008188	23.880000	0.204600
0.008199	23.880000	0.205900
0.008211	23.880000	0.205900
0.008222	23.880000	0.205900
0.008234	23.960000	0.206600
0.008245	23.960000	0.206600
0.008257	23.960000	0.206600
0.008269	23.960000	0.206100
0.008280	23.960000	0.206100
0.008292	23.960000	0.206100
0.008303	23.960000	0.206100
0.008315	23.960000	0.206100
0.008326	23.960000	0.206100
0.008338	23.960000	0.205800
0.008349	23.960000	0.205800
0.008361	23.960000	0.204900
0.008373	23.960000	0.204900
0.008384	23.960000	0.204900
0.008396	23.960000	0.204900
0.008408	23.240000	0.199600
0.008419	23.240000	0.199600
0.008431	23.240000	0.199600
0.008442	23.240000	0.199900
0.008454	23.240000	0.199900
0.008465	23.240000	0.199900
0.008477	23.310000	0.200600
0.008488	23.310000	0.200600
0.008500	23.310000	0.200600
0.008512	23.310000	0.201400
0.008523	23.310000	0.201400
0.008535	23.310000	0.202900
0.008546	23.310000	0.202900
0.008558	23.310000	0.202900
0.008570	23.310000	0.202900
0.008581	23.880000	0.207000
0.008593	23.880000	0.207000
0.008604	23.880000	0.207000
0.008616	23.960000	0.206300
0.008627	23.960000	0.206300
0.008639	23.960000	0.206300
0.008651	23.880000	0.205300
0.008662	23.880000	0.205300
0.008674	23.880000	0.205300
0.008685	23.880000	0.205200
0.008697	23.880000	0.205200
0.008708	23.880000	0.205200
0.008720	23.880000	0.205100
0.008732	23.880000	0.205100
0.008743	23.880000	0.205100
0.008755	23.880000	0.205000
0.008766	23.880000	0.205000
0.008778	23.880000	0.205000
0.008790	23.960000	0.205100
0.008801	23.960000	0.205100
0.008813	23.960000	0.205100
0.008824	23.880000	0.204700
0.008836	23.880000	0.204700
0.008847	23.880000	0.204700
0.008859	23.960000	0.204400
0.008870	23.960000	0.204400
0.008882	23.960000	0.204400
0.008894	23.880000	0.204200
0.008905	23.880000	0.204200
0.008917	23.880000	0.204200
0.008928	23.960000	0.204800
0.008940	23.960000	0.204800
0.008952	23.960000	0.204800
0.008964	23.960000	0.205700
0.008975	23.960000	0.205700
0.008987	23.960000	0.205700
0.008998	24.030000	0.206600
0.009010	24.030000	0.206600
0.009021	24.030000	0.206500
0.009033	24.030000	0.206500
0.009044	24.030000	0.206500
0.009056	24.030000	0.206500
0.009068	24.030000	0.207000
0.009079	24.030000	0.207000
0.009091	24.030000	0.207000
0.009102	23.960000	0.206500
0.009114	23.960000	0.206500
0.009125	23.960000	0.206500
0.009137	24.170000	0.207100
0.009149	24.170000	0.207100
0.009160	24.170000	0.207100
0.009172	24.240000	0.208100
0.009183	24.240000	0.208100
0.009195	24.240000	0.207800
0.009207	24.240000	0.207800
0.009218	24.240000	0.207800
0.009230	24.240000	0.207800
0.009241	24.240000	0.208000
0.009253	24.240000	0.208000
0.009265	24.240000	0.208000
0.009276	24.310000	0.207900
0.009288	24.310000	0.207900
0.009299	24.310000	0.207900
0.009311	23.960000	0.205200
0.009322	23.960000	0.205200
0.009334	23.960000	0.205200
0.009345	23.880000	0.206800
0.009357	23.880000	0.206800
0.009369	23.880000	0.206900
0.009380	23.880000	0.206900
0.009392	23.880000	0.206900
0.009403	23.880000	0.206900
0.009415	23.960000	0.205900
0.009426	23.960000	0.205900
0.009438	23.960000	0.205900
0.009450	23.880000	0.205400
0.009461	23.880000	0.205400
0.009473	23.880000	0.205400
0.009485	23.960000	0.204800
0.009496	23.960000	0.204800
0.009508	23.960000	0.204800
0.009519	23.880000	0.206300
0.009531	23.880000	0.206300
0.009543	23.880000	0.206300
0.009554	23.880000	0.204600
0.009566	23.880000	0.204600
0.009577	23.880000	0.204600
0.009589	23.880000	0.206900
0.009600	23.880000	0.206900
0.009612	23.880000	0.206900
0.009623	23.960000	0.208100
0.009635	23.960000	0.208100
0.009646	23.960000	0.208100
0.009658	23.960000	0.207200
0.009670	23.960000	0.207200
0.009681	23.880000	0.206300
0.009693	23.880000	0.206300
0.009704	23.880000	0.206300
0.009716	23.880000	0.206300
0.009728	23.810000	0.206000
0.009739	23.810000	0.206000
0.009751	23.810000	0.206000
0.009762	23.810000	0.206800
0.009774	23.810000	0.206800
0.009786	23.810000	0.206800
0.009797	23.810000	0.207500
0.009809	23.810000	0.207500
0.009821	23.810000	0.207500
0.009836	23.880000	0.208600
0.009845	23.880000	0.208600
0.009857	23.810000	0.206400
0.009867	23.810000	0.206400
0.009878	23.810000	0.206400
0.009890	23.810000	0.206400
0.009901	23.960000	0.207600
0.009913	23.960000	0.207600
0.009925	23.960000	0.207600
0.009936	23.960000	0.207200
0.009948	23.960000	0.207200
0.009959	23.960000	0.207200
0.009971	24.030000	0.207200
0.009983	24.030000	0.207200
0.009994	24.030000	0.207200
0.010006	23.960000	0.207400
0.010017	23.960000	0.207400
0.010029	23.960000	0.206800
0.010040	23.960000	0.206800
0.010052	23.960000	0.206800
0.010064	23.960000	0.206800
0.010075	23.960000	0.205200
0.010087	23.960000	0.205200
0.010098	23.960000	0.205200
0.010110	23.960000	0.205100
0.010122	23.960000	0.205100
0.010133	23.960000	0.205100
0.010145	23.880000	0.205400
0.010156	23.880000	0.205400
0.010168	23.960000	0.205100
0.010180	23.960000	0.205100
0.010191	23.960000	0.205100
0.010203	23.960000	0.204400
0.010214	23.960000	0.204400
0.010226	23.960000	0.204400
0.010238	23.960000	0.204400
0.010249	23.960000	0.204000
0.010261	23.960000	0.204000
0.010272	23.960000	0.204000
0.010284	23.880000	0.204800
0.010295	23.880000	0.204800
0.010307	23.880000	0.204800
0.010319	23.810000	0.204300
0.010330	23.810000	0.204300
0.010342	23.810000	0.204200
0.010353	23.810000	0.204200
0.010365	23.810000	0.204200
0.010376	23.810000	0.204200
0.010388	23.810000	0.204700
0.010400	23.810000	0.204700
0.010411	23.810000	0.204700
0.010423	23.740000	0.204000
0.010434	23.740000	0.204000
0.010446	23.740000	0.204000
0.010458	23.810000	0.205200
0.010469	23.810000	0.205200
0.010481	23.810000	0.205200
0.010492	23.960000	0.204800
0.010504	23.960000	0.204800
0.010516	23.960000	0.204800
0.010527	23.960000	0.204800
0.010539	23.960000	0.204800
0.010550	23.960000	0.204800
0.010562	24.030000	0.205300
0.010573	24.030000	0.205300
0.010585	24.030000	0.205300
0.010596	23.960000	0.204800
0.010608	23.960000	0.204800
0.010620	23.960000	0.204800
0.010631	23.960000	0.204100
0.010643	23.960000	0.204100
0.010654	23.670000	0.202300
0.010666	23.670000	0.202300
0.010677	23.670000	0.202300
0.010689	23.740000	0.202700
0.010701	23.740000	0.202700
0.010712	23.740000	0.202700
0.010724	23.740000	0.202700
0.010735	23.670000	0.202700
0.010747	23.670000	0.202700
0.010759	23.670000	0.202700
0.010770	23.670000	0.203000
0.010782	23.670000	0.203000
0.010793	23.670000	0.203000
0.010805	23.740000	0.203100
0.010817	23.740000	0.203100
0.010828	23.880000	0.204400
0.010840	23.880000	0.204400
0.010851	23.880000	0.204400
0.010863	23.880000	0.204400
0.010874	23.880000	0.204400
0.010886	23.880000	0.204400
0.010897	23.880000	0.204400
0.010909	23.880000	0.205300
0.010921	23.880000	0.205300
0.010932	23.880000	0.205300
0.010944	23.880000	0.204400
0.010955	23.880000	0.204400
0.010967	23.880000	0.204400
0.010979	23.960000	0.204800
0.010990	23.960000	0.204800
0.011002	23.960000	0.205200
0.011013	23.960000	0.205200
0.011025	23.960000	0.205200
0.011036	23.960000	0.205200
0.011048	24.100000	0.206700
0.011060	24.100000	0.206700
0.011071	24.100000	0.206700
0.011083	24.170000	0.205800
0.011094	24.170000	0.205800
0.011106	24.170000	0.205800
0.011117	24.170000	0.205700
0.011129	24.170000	0.205700
0.011141	24.170000	0.205700
0.011152	24.170000	0.207900
0.011164	24.170000	0.207900
0.011175	24.170000	0.207800
0.011187	24.170000	0.207800
0.011199	24.170000	0.207800
0.011210	24.170000	0.207800
0.011222	24.170000	0.206400
0.011233	24.170000	0.206400
0.011245	24.170000	0.206400
0.011256	24.170000	0.206400
0.011268	24.170000	0.206400
0.011279	24.170000	0.206400
0.011291	24.170000	0.205500
0.011303	24.170000	0.205500
0.011314	24.170000	0.205200
0.011326	24.170000	0.205200
0.011337	24.170000	0.205200
0.011349	24.240000	0.205800
0.011361	24.240000	0.205800
0.011372	24.240000	0.205800
0.011384	24.240000	0.205800
0.011395	24.100000	0.204400
0.011407	24.100000	0.204400
0.011419	24.100000	0.204400
0.011430	23.880000	0.203600
0.011442	23.880000	0.203600
0.011453	23.880000	0.203600
0.011465	23.880000	0.203600
0.011477	23.880000	0.203600
0.011489	23.960000	0.203900
0.011500	23.960000	0.203900
0.011512	23.960000	0.203900
0.011523	23.960000	0.203900
0.011534	23.880000	0.204200
0.011546	23.880000	0.204200
0.011557	23.880000	0.204200
0.011569	23.740000	0.202900
0.011580	23.740000	0.202900
0.011592	23.740000	0.202900
0.011604	23.530000	0.202100
0.011615	23.530000	0.202100
0.011627	23.530000	0.202100
0.011638	23.530000	0.200700
0.011650	23.530000	0.200700
0.011662	23.600000	0.202400
0.011673	23.600000	0.202400
0.011685	23.600000	0.202400
0.011696	23.600000	0.202400
0.011708	23.600000	0.201500
0.011720	23.600000	0.201500
0.011731	23.600000	0.201500
0.011743	23.740000	0.202500
0.011754	23.740000	0.202500
0.011766	23.740000	0.202500
0.011777	23.880000	0.203700
0.011789	23.880000	0.203700
0.011800	23.880000	0.204100
0.011812	23.880000	0.204100
0.011824	23.880000	0.204100
0.011835	23.880000	0.204200
0.011847	23.880000	0.204200
0.011858	23.880000	0.204200
0.011870	23.880000	0.204200
0.011882	23.880000	0.204600
0.011893	23.880000	0.204600
0.011905	23.880000	0.204600
0.011916	23.880000	0.204100
0.011928	23.880000	0.204100
0.011939	23.880000	0.204100
0.011951	23.880000	0.204100
0.011963	23.880000	0.204100
0.011974	23.880000	0.204100
0.011986	23.880000	0.204100
0.011998	23.880000	0.204100
0.012009	23.880000	0.204100
0.012020	23.530000	0.202500
0.012032	23.530000	0.202500
0.012044	23.530000	0.202500
0.012055	23.530000	0.202100
0.012066	23.530000	0.202100
0.012078	23.530000	0.202100
0.012090	23.530000	0.201000
0.012101	23.530000	0.201000
0.012113	23.530000	0.201000
0.012125	23.460000	0.201100
0.012136	23.460000	0.201100
0.012148	23.460000	0.201300
0.012159	23.460000	0.201300
0.012171	23.460000	0.201300
0.012182	23.460000	0.201300
0.012194	23.460000	0.201300
0.012206	23.460000	0.201300
0.012217	23.460000	0.201300
0.012228	23.460000	0.200600
0.012240	23.460000	0.200600
0.012252	23.460000	0.200600
0.012263	23.460000	0.201700
0.012275	23.460000	0.201700
0.012286	23.530000	0.202300
0.012298	23.530000	0.202300
0.012310	23.530000	0.202300
0.012321	24.030000	0.206800
0.012333	24.030000	0.206800
0.012344	24.030000	0.206800
0.012356	24.030000	0.206800
0.012368	24.030000	0.206600
0.012379	24.030000	0.206600
0.012391	24.030000	0.206600
0.012402	24.030000	0.206400
0.012414	24.030000	0.206400
0.012425	24.030000	0.206400
0.012437	24.030000	0.206800
0.012449	24.030000	0.206800
0.012460	24.030000	0.206400
0.012472	24.030000	0.206400
0.012483	24.030000	0.206400
0.012495	24.030000	0.206400
0.012506	24.030000	0.205600
0.012518	24.030000	0.205600
0.012530	24.030000	0.205600
0.012541	24.030000	0.204900
0.012553	24.030000	0.204900
0.012564	24.030000	0.204900
0.012576	24.030000	0.204600
0.012587	24.030000	0.204600
0.012599	24.030000	0.204600
0.012611	24.030000	0.204600
0.012622	24.030000	0.204600
0.012634	24.030000	0.204800
0.012645	24.030000	0.204800
0.012657	24.030000	0.204800
0.012669	24.030000	0.204800
0.012680	24.030000	0.205400
0.012692	24.030000	0.205400
0.012703	24.030000	0.205400
0.012715	24.030000	0.205400
0.012727	24.030000	0.205400
0.012738	24.030000	0.205400
0.012750	24.170000	0.207100
0.012761	24.170000	0.207100
0.012773	24.170000	0.207100
0.012785	24.170000	0.206800
0.012796	24.170000	0.206800
0.012808	24.170000	0.206500
0.012820	24.170000	0.206500
0.012831	24.170000	0.206500
0.012843	24.170000	0.206500
0.012854	24.170000	0.206600
0.012866	24.170000	0.206600
0.012877	24.170000	0.206600
0.012890	24.170000	0.206700
0.012901	24.170000	0.206700
0.012912	24.170000	0.206700
0.012924	23.880000	0.204800
0.012935	23.880000	0.204800
0.012947	23.880000	0.204600
0.012958	23.880000	0.204600
0.012970	23.880000	0.204600
0.012981	23.880000	0.205300
0.012993	23.880000	0.205300
0.013005	23.880000	0.205300
0.013016	23.880000	0.205300
0.013028	23.880000	0.205800
0.013039	23.880000	0.205800
0.013051	23.880000	0.205800
0.013063	23.960000	0.206500
0.013074	23.960000	0.206500
0.013086	23.960000	0.206500
0.013097	23.810000	0.205800
0.013109	23.810000	0.205800
0.013121	23.810000	0.204500
0.013132	23.810000	0.204500
0.013144	23.810000	0.204500
0.013155	23.810000	0.204500
0.013167	23.880000	0.204300
0.013178	23.880000	0.204300
0.013190	23.880000	0.204300
0.013201	23.810000	0.204500
0.013213	23.810000	0.204500
0.013225	23.810000	0.204500
0.013236	23.740000	0.204100
0.013248	23.740000	0.204100
0.013259	23.740000	0.204100
0.013271	23.600000	0.203400
0.013282	23.600000	0.203400
0.013294	23.600000	0.203600
0.013306	23.600000	0.203600
0.013317	23.600000	0.203600
0.013329	23.600000	0.203600
0.013340	23.600000	0.204800
0.013352	23.600000	0.204800
0.013364	23.600000	0.204800
0.013375	23.600000	0.204400
0.013387	23.600000	0.204400
0.013398	23.600000	0.204400
0.013410	23.530000	0.202600
0.013422	23.530000	0.202600
0.013433	23.530000	0.202600
0.013445	23.530000	0.202600
0.013456	23.530000	0.202600
0.013468	23.810000	0.203500
0.013479	23.810000	0.203500
0.013491	23.810000	0.203500
0.013503	23.810000	0.203500
0.013514	23.810000	0.203800
0.013526	23.810000	0.203800
0.013537	23.810000	0.203800
0.013549	23.810000	0.203000
0.013560	23.810000	0.203000
0.013572	23.810000	0.203000
0.013584	23.810000	0.204700
0.013596	23.810000	0.204700
0.013607	23.880000	0.204800
0.013618	23.880000	0.204800
0.013630	23.880000	0.204800
0.013642	23.740000	0.204800
0.013653	23.740000	0.204800
0.013665	23.740000	0.204800
0.013676	23.740000	0.204800
0.013688	23.740000	0.206000
0.013699	23.740000	0.206000
0.013711	23.740000	0.206000
0.013723	23.740000	0.207300
0.013734	23.740000	0.207300
0.013746	23.740000	0.207300
0.013757	23.740000	0.208800
0.013769	23.740000	0.208800
0.013781	23.740000	0.209400
0.013792	23.740000	0.209400
0.013804	23.740000	0.209400
0.013815	23.740000	0.205300
0.013827	23.740000	0.205300
0.013838	23.740000	0.205300
0.013850	23.740000	0.205300
0.013861	24.170000	0.206900
0.013873	24.170000	0.206900
0.013885	24.170000	0.206900
0.013896	24.100000	0.206000
0.013908	24.100000	0.206000
0.013920	24.170000	0.206000
0.013931	24.170000	0.208700
0.013943	24.170000	0.208700
0.013954	24.100000	0.209900
0.013966	24.100000	0.209900
0.013978	24.100000	0.209900
0.013989	24.100000	0.209900
0.014001	24.100000	0.207400
0.014012	24.100000	0.207400
0.014024	24.100000	0.207400
0.014035	24.030000	0.209600
0.014047	24.030000	0.209600
0.014058	24.030000	0.209600
0.014070	24.030000	0.206700
0.014082	24.030000	0.206700
0.014093	24.030000	0.206800
0.014105	24.030000	0.206800
0.014116	24.030000	0.206800
0.014128	24.100000	0.207400
0.014140	24.100000	0.207400
0.014152	24.100000	0.207400
0.014163	24.100000	0.207400
0.014174	24.100000	0.207400
0.014186	24.100000	0.207400
0.014197	24.100000	0.207400
0.014209	24.030000	0.207900
0.014221	24.030000	0.207900
0.014232	24.030000	0.207900
0.014244	23.960000	0.207100
0.014255	23.960000	0.207100
0.014267	23.960000	0.206900
0.014278	23.960000	0.206900
0.014290	23.960000	0.206900
0.014302	23.960000	0.207300
0.014314	23.960000	0.207300
0.014325	23.960000	0.207300
0.014336	23.960000	0.207300
0.014348	23.960000	0.206500
0.014359	23.960000	0.206500
0.014371	23.960000	0.206500
0.014383	23.960000	0.206700
0.014394	23.960000	0.206700
0.014406	23.960000	0.206700
0.014417	23.810000	0.205600
0.014429	23.810000	0.205600
0.014440	23.810000	0.204200
0.014452	23.810000	0.204200
0.014464	23.810000	0.204200
0.014475	23.740000	0.204200
0.014487	23.740000	0.204200
0.014498	23.740000	0.204200
0.014510	23.740000	0.204200
0.014521	23.740000	0.204200
0.014533	23.740000	0.204200
0.014544	23.740000	0.204200
0.014556	23.740000	0.204800
0.014568	23.740000	0.204800
0.014579	24.030000	0.204800
0.014591	24.030000	0.207600
0.014603	24.030000	0.207600
0.014614	23.960000	0.207500
0.014626	23.960000	0.207500
0.014637	23.960000	0.207500
0.014649	23.960000	0.207500
0.014660	23.960000	0.207400
0.014672	23.960000	0.207400
0.014683	23.960000	0.207400
0.014695	23.960000	0.206500
0.014707	23.960000	0.206500
0.014718	23.960000	0.206500
0.014730	23.960000	0.206300
0.014741	23.960000	0.206300
0.014753	23.960000	0.207100
0.014765	23.960000	0.207100
0.014776	23.960000	0.207100
0.014788	23.960000	0.207800
0.014799	23.960000	0.207800
0.014811	23.960000	0.207800
0.014823	23.960000	0.207800
0.014834	23.310000	0.202800
0.014846	23.310000	0.202800
0.014858	23.310000	0.202800
0.014869	23.460000	0.203800
0.014880	23.460000	0.203800
0.014892	23.460000	0.203800
0.014904	23.460000	0.203800
0.014915	23.460000	0.203800
0.014927	23.460000	0.204400
0.014938	23.460000	0.204400
0.014950	23.460000	0.204400
0.014961	23.530000	0.205000
0.014973	23.530000	0.205000
0.014985	23.530000	0.205000
0.014996	23.530000	0.205000
0.015008	24.030000	0.208300
0.015019	24.030000	0.208300
0.015031	24.030000	0.208300
0.015043	24.100000	0.208800
0.015054	24.100000	0.208800
0.015066	24.100000	0.208800
0.015077	24.100000	0.208000
0.015089	24.100000	0.208000
0.015100	24.030000	0.208900
0.015112	24.030000	0.208900
0.015123	24.030000	0.208900
0.015135	24.030000	0.208500
0.015147	24.030000	0.208500
0.015158	24.030000	0.208500
0.015170	24.030000	0.208500
0.015181	23.670000	0.206700
0.015193	23.670000	0.206700
0.015204	23.670000	0.206700
0.015216	23.740000	0.205900
0.015228	23.740000	0.205900
0.015239	23.740000	0.205900
0.015251	23.740000	0.205500
0.015263	23.740000	0.205500
0.015274	23.740000	0.204800
0.015285	23.740000	0.204800
0.015297	23.740000	0.204800
0.015309	23.740000	0.204800
0.015320	23.740000	0.204800
0.015332	23.740000	0.204800
0.015343	23.740000	0.204800
0.015355	23.810000	0.204400
0.015367	23.810000	0.204400
0.015378	23.810000	0.204400
0.015390	24.170000	0.207900
0.015401	24.170000	0.207900
0.015413	24.240000	0.208000
0.015424	24.240000	0.208000
0.015436	24.240000	0.208000
0.015448	24.240000	0.208600
0.015459	24.240000	0.208600
0.015471	24.240000	0.208600
0.015482	24.240000	0.208600
0.015494	24.240000	0.208200
0.015505	24.240000	0.208200
0.015517	24.240000	0.208200
0.015529	24.240000	0.208500
0.015540	24.240000	0.208500
0.015552	24.240000	0.208500
0.015563	23.810000	0.205200
0.015575	23.810000	0.205200
0.015586	23.740000	0.204900
0.015598	23.740000	0.204900
0.015610	23.740000	0.204900
0.015621	23.740000	0.204900
0.015633	23.740000	0.204900
0.015644	23.740000	0.204900
0.015656	23.740000	0.204900
0.015668	23.740000	0.204200
0.015679	23.740000	0.204200
0.015691	23.740000	0.204200
0.015702	23.810000	0.204600
0.015714	23.810000	0.204600
0.015726	23.810000	0.204600
0.015737	23.810000	0.207500
0.015748	23.810000	0.207500
0.015760	23.740000	0.204900
0.015772	23.740000	0.204900
0.015783	23.740000	0.204900
0.015795	23.810000	0.206600
0.015806	23.810000	0.206600
0.015818	23.810000	0.206600
0.015829	23.810000	0.206600
0.015841	23.810000	0.207200
0.015853	23.810000	0.207200
0.015864	23.810000	0.207200
0.015876	23.810000	0.209100
0.015888	23.810000	0.209100
0.015899	23.880000	0.209300
0.015911	23.880000	0.209300
0.015922	23.880000	0.209300
0.015934	23.880000	0.208100
0.015946	23.880000	0.208100
0.015957	23.880000	0.208100
0.015969	23.880000	0.208100
0.015980	23.880000	0.206600
0.015992	23.880000	0.206600
0.016003	23.880000	0.206600
0.016015	23.880000	0.205500
0.016027	23.880000	0.205500
0.016038	23.880000	0.205500
0.016050	23.880000	0.205400
0.016061	23.880000	0.205400
0.016073	23.740000	0.204900
0.016084	23.740000	0.204900
0.016096	23.740000	0.204900
0.016107	23.670000	0.204300
0.016119	23.670000	0.204300
0.016131	23.670000	0.204300
0.016142	23.670000	0.204300
0.016154	23.670000	0.204800
0.016165	23.670000	0.204800
0.016177	23.670000	0.204800
0.016188	23.740000	0.204900
0.016200	23.740000	0.204900
0.016212	23.740000	0.204900
0.016223	23.740000	0.204900
0.016235	23.740000	0.204900
0.016246	23.740000	0.205100
0.016258	23.740000	0.205100
0.016269	23.740000	0.205100
0.016281	23.740000	0.205500
0.016293	23.740000	0.205500
0.016304	23.740000	0.205500
0.016316	23.740000	0.205500
0.016328	23.960000	0.206200
0.016339	23.960000	0.206200
0.016350	23.960000	0.206200
0.016362	23.960000	0.206200
0.016374	23.960000	0.206200
0.016385	23.960000	0.206200
0.016397	24.100000	0.207100
0.016408	24.100000	0.207100
0.016420	24.100000	0.208400
0.016432	24.100000	0.208400
0.016443	24.100000	0.208400
0.016455	24.030000	0.207400
0.016466	24.030000	0.207400
0.016478	24.030000	0.207400
0.016490	24.030000	0.207400
0.016501	23.960000	0.206700
0.016513	23.960000	0.206700
0.016524	23.960000	0.206700
0.016536	23.960000	0.206900
0.016548	23.960000	0.206900
0.016559	23.960000	0.205800
0.016571	23.960000	0.205800
0.016582	23.960000	0.205800
0.016594	23.960000	0.205600
0.016605	23.960000	0.205600
0.016618	23.960000	0.205600
0.016629	23.960000	0.206200
0.016640	23.960000	0.206200
0.016652	23.960000	0.206200
0.016663	23.960000	0.206200
0.016675	24.030000	0.208300
0.016686	24.030000	0.208300
0.016698	24.030000	0.208300
0.016710	23.960000	0.207800
0.016721	23.960000	0.207800
0.016733	23.960000	0.207700
0.016744	23.960000	0.207700
0.016756	23.960000	0.207700
0.016768	23.960000	0.208200
0.016779	23.960000	0.208200
0.016791	23.960000	0.208200
0.016802	23.960000	0.208200
0.016814	23.960000	0.208200
0.016825	23.960000	0.208200
0.016837	23.960000	0.208200
0.016849	23.880000	0.206000
0.016860	23.880000	0.206000
0.016872	23.880000	0.206000
0.016883	23.810000	0.205500
0.016895	23.810000	0.205500
0.016907	23.810000	0.206400
0.016918	23.810000	0.206400
0.016930	23.810000	0.206400
0.016941	23.810000	0.206700
0.016953	23.810000	0.206700
0.016965	23.810000	0.206700
0.016976	23.810000	0.206700
0.016988	23.880000	0.206400
0.016999	23.880000	0.206400
0.017011	23.880000	0.206400
0.017022	23.880000	0.206300
0.017034	23.880000	0.206300
0.017045	23.880000	0.206300
0.017057	23.880000	0.206300
0.017069	23.880000	0.206300
0.017080	23.880000	0.206300
0.017092	23.880000	0.206300
0.017103	23.880000	0.206300
0.017115	24.170000	0.207700
0.017127	24.170000	0.207700
0.017138	24.170000	0.207700
0.017150	24.170000	0.207700
0.017161	24.170000	0.208300
0.017173	24.170000	0.208300
0.017184	24.170000	0.208300
0.017196	24.170000	0.208800
0.017208	24.170000	0.208800
0.017219	24.170000	0.208800
0.017231	24.170000	0.208300
0.017242	24.170000	0.208300
0.017254	23.670000	0.204600
0.017265	23.670000	0.204600
0.017277	23.670000	0.204600
0.017289	23.810000	0.205800
0.017300	23.810000	0.205800
0.017312	23.810000	0.205800
0.017324	23.810000	0.205800
0.017335	23.810000	0.205600
0.017347	23.810000	0.205600
0.017358	23.810000	0.205600
0.017370	23.810000	0.205500
0.017381	23.810000	0.205500
0.017393	23.740000	0.205100
0.017404	23.740000	0.205100
0.017416	23.740000	0.205100
0.017428	23.600000	0.204000
0.017439	23.600000	0.204000
0.017451	23.600000	0.204000
0.017462	23.600000	0.205200
0.017474	23.600000	0.205200
0.017485	23.600000	0.205200
0.017497	23.600000	0.205200
0.017509	23.600000	0.204700
0.017520	23.600000	0.204700
0.017532	23.600000	0.204700
0.017543	23.600000	0.204100
0.017555	23.600000	0.204100
0.017567	23.530000	0.204400
0.017578	23.530000	0.204400
0.017590	23.530000	0.204400
0.017601	23.810000	0.206300
0.017613	23.810000	0.206300
0.017624	23.810000	0.206300
0.017636	23.740000	0.206700
0.017648	23.740000	0.206700
0.017659	23.740000	0.206700
0.017671	23.740000	0.206700
0.017682	23.810000	0.206700
0.017694	23.810000	0.206700
0.017705	23.810000	0.206700
0.017717	23.810000	0.206800
0.017728	23.810000	0.206800
0.017740	23.810000	0.206700
0.017752	23.810000	0.206700
0.017763	23.810000	0.206700
0.017775	23.810000	0.206800
0.017786	23.810000	0.206800
0.017798	23.810000	0.206800
0.017810	23.810000	0.206800
0.017821	23.810000	0.206800
0.017833	23.810000	0.206800
0.017844	23.810000	0.206800
0.017856	23.880000	0.205800
0.017867	23.880000	0.205800
0.017879	23.880000	0.205800
0.017890	23.810000	0.205200
0.017902	23.810000	0.205200
0.017914	23.880000	0.205400
0.017925	23.880000	0.205400
0.017937	23.880000	0.205400
0.017948	23.810000	0.205100
0.017960	23.810000	0.205100
0.017972	23.810000	0.205100
0.017983	23.810000	0.205100
0.017995	23.960000	0.206500
0.018006	23.960000	0.206500
0.018018	23.960000	0.206500
0.018030	23.960000	0.206200
0.018041	23.960000	0.206200
0.018053	23.960000	0.206200
0.018064	23.960000	0.206200
0.018076	23.960000	0.206200
0.018087	23.960000	0.206300
0.018099	23.960000	0.206300
0.018111	23.960000	0.206300
0.018122	23.960000	0.207200
0.018134	23.960000	0.207200
0.018145	23.960000	0.207200
0.018157	23.960000	0.207200
0.018169	23.960000	0.207500
0.018180	23.960000	0.207500
0.018192	23.960000	0.207500
0.018203	23.960000	0.208000
0.018215	23.960000	0.208000
0.018226	23.960000	0.208300
0.018238	23.960000	0.208300
0.018249	23.960000	0.208300
0.018261	24.740000	0.213900
0.018273	24.740000	0.213900
0.018284	24.740000	0.213900
0.018296	24.810000	0.213900
0.018308	24.810000	0.213900
0.018319	24.810000	0.213900
0.018331	24.810000	0.213900
0.018342	24.740000	0.214400
0.018354	24.740000	0.214400
0.018366	24.740000	0.214400
0.018377	24.740000	0.213600
0.018389	24.740000	0.213600
0.018400	24.740000	0.214400
0.018412	24.740000	0.214400
0.018424	24.740000	0.214400
0.018435	24.740000	0.213200
0.018447	24.740000	0.213200
0.018459	24.740000	0.213200
0.018471	24.740000	0.212000
0.018482	24.740000	0.212000
0.018494	24.740000	0.212000
0.018505	24.740000	0.212000
0.018517	24.740000	0.212600
0.018528	24.740000	0.212600
0.018540	24.740000	0.212600
0.018551	24.740000	0.212600
0.018563	24.740000	0.212600
0.018574	24.670000	0.212600
0.018586	24.670000	0.212600
0.018598	24.670000	0.212600
0.018609	24.670000	0.212000
0.018621	24.670000	0.212000
0.018633	24.670000	0.212000
0.018644	24.670000	0.212000
0.018656	24.670000	0.209200
0.018667	24.670000	0.209200
0.018679	24.670000	0.209200
0.018691	24.530000	0.207600
0.018703	24.530000	0.207600
0.018714	24.740000	0.208500
0.018726	24.740000	0.208500
0.018738	24.740000	0.208500
0.018749	24.740000	0.209200
0.018761	24.740000	0.209200
0.018772	24.740000	0.209200
0.018784	24.670000	0.208500
0.018795	24.670000	0.208500
0.018807	24.670000	0.208500
0.018819	24.670000	0.208500
0.018830	24.810000	0.212600
0.018842	24.810000	0.212600
0.018854	24.810000	0.212600
0.018865	24.740000	0.211100
0.018876	24.740000	0.211100
0.018888	24.670000	0.210900
0.018900	24.670000	0.210900
0.018911	24.670000	0.210900
0.018923	24.310000	0.207600
0.018935	24.310000	0.207600
0.018946	24.310000	0.207600
0.018958	24.460000	0.208600
0.018970	24.460000	0.208600
0.018981	24.460000	0.208600
0.018993	24.460000	0.208600
0.019004	24.740000	0.210300
0.019016	24.740000	0.210300
0.019028	24.670000	0.210300
0.019039	24.670000	0.210400
0.019051	24.670000	0.210400
0.019062	24.670000	0.211300
0.019074	24.670000	0.211300
0.019086	24.670000	0.211300
0.019097	24.670000	0.211300
0.019109	24.670000	0.211300
0.019120	24.670000	0.211300
0.019132	24.670000	0.211000
0.019144	24.670000	0.211000
0.019155	24.670000	0.211000
0.019167	24.670000	0.211000
0.019178	24.740000	0.211400
0.019190	24.740000	0.211400
0.019202	24.670000	0.212800
0.019213	24.670000	0.212800
0.019225	24.670000	0.212800
0.019237	24.670000	0.212500
0.019248	24.670000	0.212500
0.019260	24.670000	0.212500
0.019271	24.670000	0.212500
0.019283	24.670000	0.212500
0.019295	24.670000	0.212500
0.019306	24.670000	0.214000
0.019317	24.670000	0.214000
0.019329	24.670000	0.214000
0.019341	24.670000	0.214000
0.019352	24.670000	0.212100
0.019364	24.670000	0.212100
0.019376	24.670000	0.212500
0.019387	24.670000	0.212500
0.019399	24.670000	0.212500
0.019411	24.740000	0.212900
0.019422	24.740000	0.212900
0.019434	24.740000	0.212900
0.019445	24.740000	0.213900
0.019457	24.740000	0.213900
0.019469	24.740000	0.213900
0.019481	24.670000	0.213100
0.019492	24.670000	0.213100
0.019503	24.670000	0.213100
0.019515	24.670000	0.213100
0.019527	24.740000	0.213900
0.019538	24.740000	0.213900
0.019550	24.670000	0.215300
0.019561	24.670000	0.215300
0.019573	24.670000	0.215300
0.019585	24.670000	0.215200
0.019596	24.670000	0.215200
0.019608	24.670000	0.215200
0.019620	24.740000	0.216300
0.019632	24.740000	0.216300
0.019643	24.740000	0.216300
0.019655	24.670000	0.216600
0.019666	24.670000	0.216600
0.019678	24.670000	0.216600
0.019690	24.670000	0.216600
0.019701	24.670000	0.215100
0.019713	24.670000	0.215100
0.019724	24.670000	0.213200
0.019736	24.670000	0.213200
0.019747	24.670000	0.213200
0.019759	24.670000	0.212600
0.019770	24.670000	0.212600
0.019782	24.670000	0.212600
0.019794	24.740000	0.212600
0.019805	24.740000	0.212600
0.019817	24.740000	0.212600
0.019828	24.670000	0.213000
0.019840	24.670000	0.213000
0.019851	24.670000	0.213000
0.019863	24.670000	0.213000
0.019875	24.670000	0.213000
0.019886	24.670000	0.213000
0.019898	24.810000	0.213700
0.019909	24.810000	0.213700
0.019921	24.810000	0.213700
0.019932	24.810000	0.213900
0.019944	24.810000	0.213900
0.019956	24.810000	0.213900
0.019967	24.890000	0.213800
0.019979	24.890000	0.213800
0.019990	24.890000	0.213800
0.020002	24.890000	0.213800
0.020013	24.890000	0.213800
0.020025	24.890000	0.213800
0.020037	24.890000	0.213300
0.020048	24.890000	0.213300
0.020060	24.890000	0.213300
0.020071	24.890000	0.213300
0.020083	24.890000	0.213300
0.020094	24.890000	0.213300
0.020106	24.890000	0.213800
0.020118	24.890000	0.213800
0.020129	24.890000	0.213800
0.020141	24.890000	0.215100
0.020152	24.890000	0.215100
0.020164	24.890000	0.215100
0.020176	24.890000	0.215100
0.020187	24.810000	0.215100
0.020199	24.810000	0.215100
0.020210	24.810000	0.214700
0.020222	24.810000	0.214700
0.020233	24.810000	0.214700
0.020245	24.810000	0.214100
0.020257	24.810000	0.214100
0.020268	24.810000	0.214100
0.020280	24.810000	0.214700
0.020291	24.810000	0.214700
0.020303	24.810000	0.214700
0.020315	24.810000	0.214900
0.020326	24.810000	0.214900
0.020338	24.810000	0.214900
0.020349	24.890000	0.215500
0.020361	24.890000	0.215500
0.020372	24.890000	0.215500
0.020384	24.890000	0.214600
0.020395	24.890000	0.214600
0.020407	24.890000	0.214600
0.020419	24.740000	0.214700
0.020430	24.740000	0.214700
0.020442	24.740000	0.214700
0.020453	24.670000	0.214400
0.020465	24.670000	0.214400
0.020477	24.670000	0.214400
0.020489	24.670000	0.214300
0.020500	24.670000	0.214300
0.020512	24.670000	0.214300
0.020523	24.740000	0.214900
0.020535	24.740000	0.214900
0.020546	24.740000	0.214900
0.020558	24.740000	0.215000
0.020570	24.740000	0.215000
0.020581	24.740000	0.215000
0.020593	24.670000	0.214200
0.020604	24.670000	0.214200
0.020616	24.670000	0.214200
0.020628	24.670000	0.214000
0.020639	24.670000	0.214000
0.020651	24.670000	0.214000
0.020662	24.670000	0.211800
0.020674	24.670000	0.211800
0.020685	24.670000	0.211800
0.020697	24.670000	0.215000
0.020709	24.670000	0.215000
0.020720	24.670000	0.215000
0.020732	24.670000	0.215000
0.020743	24.670000	0.215000
0.020755	24.670000	0.215000
0.020767	24.740000	0.212100
0.020778	24.740000	0.212100
0.020790	24.740000	0.212100
0.020801	24.740000	0.212800
0.020813	24.740000	0.212800
0.020825	24.740000	0.212800
0.020836	24.740000	0.212800
0.020849	24.740000	0.213600
0.020860	24.740000	0.213600
0.020871	24.740000	0.212000
0.020883	24.740000	0.212000
0.020894	24.740000	0.212000
0.020906	24.740000	0.212700
0.020918	24.740000	0.212700
0.020929	24.740000	0.212700
0.020941	24.740000	0.212200
0.020952	24.740000	0.212200
0.020964	24.740000	0.212200
0.020976	24.740000	0.211800
0.020987	24.740000	0.211800
0.020999	24.740000	0.212300
0.021011	24.740000	0.212300
0.021022	24.740000	0.212300
0.021034	24.740000	0.212300
0.021045	24.740000	0.213500
0.021057	24.740000	0.213500
0.021069	24.740000	0.213500
0.021080	24.740000	0.214600
0.021092	24.740000	0.214600
0.021104	24.740000	0.214600
0.021115	24.740000	0.214000
0.021127	24.740000	0.214000
0.021139	24.740000	0.214000
0.021150	24.740000	0.214100
0.021162	24.740000	0.214100
0.021174	24.740000	0.214200
0.021185	24.740000	0.214200
0.021197	24.740000	0.214200
0.021208	24.740000	0.214200
0.021220	24.670000	0.214300
0.021231	24.670000	0.214300
0.021243	24.670000	0.214300
0.021255	24.670000	0.215100
0.021266	24.670000	0.215100
0.021278	24.670000	0.215100
0.021289	24.740000	0.214200
0.021301	24.740000	0.214200
0.021313	24.740000	0.214200
0.021324	24.740000	0.213300
0.021336	24.740000	0.213300
0.021348	24.740000	0.213800
0.021359	24.740000	0.213800
0.021371	24.740000	0.213800
0.021383	24.740000	0.213800
0.021394	24.670000	0.214000
0.021406	24.670000	0.214000
0.021418	24.670000	0.214000
0.021429	24.670000	0.214000
0.021441	24.670000	0.214000
0.021452	24.670000	0.214000
0.021464	24.670000	0.213000
0.021475	24.670000	0.213000
0.021487	24.600000	0.213000
0.021499	24.600000	0.213000
0.021510	24.600000	0.213000
0.021522	24.600000	0.212000
0.021534	24.600000	0.212000
0.021546	24.600000	0.212000
0.021557	24.600000	0.212000
0.021568	24.600000	0.211600
0.021580	24.600000	0.211600
0.021591	24.600000	0.211600
0.021603	24.600000	0.212500
0.021615	24.600000	0.212500
0.021626	24.600000	0.212500
0.021638	24.670000	0.211100
0.021649	24.670000	0.211100
0.021661	24.740000	0.211700
0.021673	24.740000	0.211700
0.021684	24.740000	0.211700
0.021696	24.670000	0.211700
0.021707	24.670000	0.211700
0.021719	24.670000	0.211700
0.021731	24.670000	0.211700
0.021742	24.670000	0.212100
0.021754	24.670000	0.212100
0.021765	24.670000	0.212100
0.021777	24.670000	0.212400
0.021788	24.670000	0.212400
0.021800	24.670000	0.212400
0.021812	24.740000	0.210900
0.021823	24.740000	0.210900
0.021835	24.740000	0.210200
0.021846	24.740000	0.210200
0.021858	24.740000	0.210200
0.021870	24.600000	0.210000
0.021881	24.600000	0.210000
0.021893	24.600000	0.210000
0.021905	24.600000	0.210000
0.021916	24.530000	0.211100
0.021928	24.530000	0.211100
0.021940	24.530000	0.211100
0.021951	24.740000	0.211600
0.021963	24.740000	0.211600
0.021974	24.670000	0.211600
0.021986	24.670000	0.211500
0.021998	24.670000	0.211500
0.022009	24.740000	0.212200
0.022021	24.740000	0.212200
0.022032	24.740000	0.212200
0.022044	24.740000	0.212200
0.022056	24.740000	0.213500
0.022067	24.740000	0.213500
0.022079	24.740000	0.213500
0.022090	24.810000	0.215400
0.022102	24.810000	0.215400
0.022113	24.810000	0.215400
0.022125	24.810000	0.216300
0.022136	24.810000	0.216300
0.022148	24.740000	0.214000
0.022160	24.740000	0.214000
0.022171	24.740000	0.214000
0.022183	24.740000	0.214500
0.022195	24.740000	0.214500
0.022207	24.740000	0.214500
0.022218	24.740000	0.214500
0.022230	24.600000	0.212400
0.022242	24.600000	0.212400
0.022253	24.600000	0.212400
0.022265	24.670000	0.211500
0.022276	24.670000	0.211500
0.022288	24.670000	0.211500
0.022300	24.670000	0.212000
0.022311	24.670000	0.212000
0.022323	24.670000	0.212100
0.022334	24.670000	0.212100
0.022346	24.670000	0.212100
0.022358	24.670000	0.212400
0.022369	24.670000	0.212400
0.022381	24.670000	0.212400
0.022392	24.670000	0.212400
0.022404	24.810000	0.212800
0.022416	24.810000	0.212800
0.022427	24.810000	0.212800
0.022439	24.740000	0.212500
0.022450	24.740000	0.212500
0.022462	24.810000	0.212500
0.022474	24.810000	0.213100
0.022485	24.810000	0.213100
0.022497	24.810000	0.213600
0.022508	24.810000	0.213600
0.022520	24.810000	0.213600
0.022532	24.740000	0.213700
0.022543	24.740000	0.213700
0.022555	24.740000	0.213700
0.022567	24.740000	0.213700
0.022578	24.810000	0.213800
0.022590	24.810000	0.213800
0.022602	24.810000	0.213800
0.022614	24.810000	0.213400
0.022625	24.810000	0.213400
0.022636	24.740000	0.214600
0.022648	24.740000	0.214600
0.022660	24.740000	0.214600
0.022671	24.740000	0.213800
0.022683	24.740000	0.213800
0.022694	24.740000	0.213800
0.022706	24.810000	0.213400
0.022718	24.810000	0.213400
0.022730	24.810000	0.213400
0.022742	24.810000	0.212800
0.022753	24.810000	0.212800
0.022765	24.810000	0.212800
0.022776	24.810000	0.212800
0.022788	24.810000	0.213000
0.022799	24.810000	0.213000
0.022811	24.810000	0.213200
0.022823	24.810000	0.213200
0.022835	24.810000	0.213200
0.022846	24.810000	0.213200
0.022858	24.810000	0.213200
0.022869	24.810000	0.213200
0.022881	24.740000	0.213000
0.022893	24.740000	0.213000
0.022904	24.740000	0.213000
0.022916	24.740000	0.213000
0.022927	24.670000	0.213300
0.022939	24.670000	0.213300
0.022950	24.670000	0.213300
0.022963	24.670000	0.214600
0.022974	24.670000	0.214600
0.022985	24.670000	0.214700
0.022997	24.670000	0.214700
0.023009	24.670000	0.214700
0.023020	24.670000	0.215200
0.023032	24.670000	0.215200
0.023043	24.670000	0.215200
0.023055	24.810000	0.216300
0.023067	24.810000	0.216300
0.023078	24.810000	0.216300
0.023090	24.810000	0.216300
0.023102	24.740000	0.216800
0.023113	24.740000	0.216800
0.023125	24.740000	0.216400
0.023136	24.740000	0.216400
0.023148	24.740000	0.216400
0.023160	24.810000	0.215400
0.023171	24.810000	0.215400
0.023183	24.810000	0.215400
0.023195	24.810000	0.215300
0.023206	24.810000	0.215300
0.023218	24.810000	0.215300
0.023229	24.740000	0.214800
0.023241	24.740000	0.214800
0.023252	24.740000	0.214800
0.023264	24.740000	0.214800
0.023276	24.810000	0.214900
0.023287	24.810000	0.214900
0.023299	24.810000	0.215000
0.023310	24.810000	0.215000
0.023322	24.810000	0.215000
0.023333	24.740000	0.214600
0.023345	24.740000	0.214600
0.023357	24.740000	0.214600
0.023368	24.810000	0.214600
0.023380	24.810000	0.214600
0.023391	24.810000	0.214600
0.023403	24.810000	0.214700
0.023415	24.810000	0.214700
0.023426	24.810000	0.214700
0.023438	24.810000	0.214700
0.023450	24.810000	0.213600
0.023461	24.810000	0.213600
0.023473	24.810000	0.213900
0.023485	24.810000	0.213900
0.023496	24.810000	0.213900
0.023508	24.740000	0.213800
0.023520	24.740000	0.213800
0.023531	24.740000	0.213800
0.023543	24.740000	0.214400
0.023554	24.740000	0.214400
0.023566	24.740000	0.214400
0.023577	24.740000	0.214400
0.023589	24.740000	0.214400
0.023601	24.740000	0.214400
0.023612	24.740000	0.214400
0.023624	24.670000	0.214500
0.023635	24.670000	0.214500
0.023647	24.740000	0.215200
0.023658	24.740000	0.215200
0.023670	24.740000	0.215200
0.023682	24.740000	0.215000
0.023694	24.740000	0.215000
0.023705	24.740000	0.215000
0.023717	24.740000	0.214900
0.023728	24.740000	0.214900
0.023740	24.740000	0.214900
0.023752	24.740000	0.215000
0.023764	24.740000	0.215000
0.023775	24.740000	0.215000
0.023787	24.810000	0.215300
0.023799	24.810000	0.215300
0.023810	24.810000	0.215300
0.023822	24.810000	0.215000
0.023834	24.810000	0.215000
0.023845	24.810000	0.215000
0.023857	24.810000	0.214600
0.023868	24.810000	0.214600
0.023880	24.810000	0.214600
0.023892	24.810000	0.215300
0.023903	24.810000	0.215300
0.023915	24.810000	0.215300
0.023927	24.740000	0.215800
0.023938	24.740000	0.215800
0.023950	24.810000	0.215700
0.023962	24.810000	0.215700
0.023973	24.810000	0.215700
0.023985	24.810000	0.215700
0.023996	24.810000	0.216700
0.024008	24.810000	0.216700
0.024020	24.810000	0.216700
0.024031	24.810000	0.217500
0.024043	24.810000	0.217500
0.024055	24.810000	0.217500
0.024067	24.740000	0.216900
0.024078	24.740000	0.216900
0.024090	24.740000	0.216900
0.024102	24.810000	0.215500
0.024113	24.810000	0.215500
0.024125	24.810000	0.215300
0.024137	24.810000	0.215300
0.024148	24.810000	0.215300
0.024160	24.810000	0.215300
0.024172	24.810000	0.214000
0.024183	24.810000	0.214000
0.024195	24.810000	0.214000
0.024206	24.810000	0.214900
0.024218	24.810000	0.214900
0.024230	24.810000	0.214900
0.024241	24.740000	0.213900
0.024253	24.740000	0.213900
0.024265	24.810000	0.213600
0.024276	24.810000	0.213600
0.024288	24.810000	0.213600
0.024299	24.810000	0.213200
0.024311	24.810000	0.213200
0.024322	24.810000	0.213200
0.024334	24.810000	0.213200
0.024346	24.810000	0.213000
0.024357	24.810000	0.213000
0.024369	24.810000	0.213000
0.024380	24.810000	0.212500
0.024392	24.810000	0.212500
0.024404	24.810000	0.212500
0.024416	24.810000	0.211500
0.024427	24.810000	0.211500
0.024439	24.810000	0.211700
0.024450	24.810000	0.211700
0.024462	24.810000	0.211700
0.024474	24.810000	0.211800
0.024485	24.810000	0.211800
0.024497	24.810000	0.211800
0.024508	24.810000	0.211800
0.024520	24.810000	0.211800
0.024531	24.810000	0.211800
0.024543	24.810000	0.211800
0.024554	24.740000	0.212600
0.024566	24.740000	0.212600
0.024578	24.740000	0.212600
0.024589	24.740000	0.212600
0.024601	24.740000	0.212600
0.024613	24.810000	0.213600
0.024624	24.810000	0.213600
0.024636	24.810000	0.213600
0.024648	24.810000	0.213300
0.024659	24.810000	0.213300
0.024671	24.810000	0.213300
0.024682	24.810000	0.213300
0.024694	24.810000	0.213300
0.024706	24.810000	0.213300
0.024717	24.810000	0.213300
0.024729	24.810000	0.213400
0.024740	24.810000	0.213400
0.024752	24.810000	0.214900
0.024764	24.810000	0.214900
0.024775	24.810000	0.214900
0.024787	24.810000	0.214800
0.024798	24.810000	0.214800
0.024810	24.810000	0.214800
0.024822	24.810000	0.214800
0.024833	24.810000	0.215100
0.024845	24.810000	0.215100
0.024856	24.810000	0.215100
0.024868	24.810000	0.214600
0.024879	24.810000	0.214600
0.024891	24.810000	0.214600
0.024902	24.740000	0.214100
0.024914	24.740000	0.214100
0.024926	24.740000	0.215000
0.024937	24.740000	0.215000
0.024949	24.740000	0.215000
0.024961	24.810000	0.216600
0.024972	24.810000	0.216600
0.024984	24.810000	0.216600
0.024995	24.810000	0.216600
0.025007	24.810000	0.216600
0.025018	24.810000	0.216600
0.025030	24.810000	0.216600
0.025042	24.810000	0.215200
0.025053	24.810000	0.215200
0.025065	24.810000	0.215200
0.025077	24.810000	0.214400
0.025088	24.810000	0.214400
0.025099	24.810000	0.213600
0.025111	24.810000	0.213600
0.025123	24.810000	0.213600
0.025134	24.740000	0.213900
0.025146	24.740000	0.213900
0.025157	24.740000	0.213900
0.025169	24.740000	0.213900
0.025181	24.740000	0.213500
0.025192	24.740000	0.213500
0.025204	24.740000	0.213500
0.025216	24.740000	0.213800
0.025227	24.740000	0.213800
0.025239	24.810000	0.214000
0.025250	24.810000	0.214000
0.025262	24.810000	0.214000
0.025274	24.810000	0.214400
0.025285	24.810000	0.214400
0.025297	24.810000	0.214400
0.025308	24.810000	0.214200
0.025320	24.810000	0.214200
0.025332	24.810000	0.214200
0.025343	24.810000	0.214200
0.025355	24.810000	0.214300
0.025366	24.810000	0.214300
0.025378	24.810000	0.214300
0.025389	24.740000	0.213900
0.025401	24.740000	0.213900
0.025413	24.810000	0.214000
0.025424	24.810000	0.214000
0.025436	24.810000	0.214000
0.025448	24.810000	0.214100
0.025459	24.810000	0.214100
0.025471	24.810000	0.214100
0.025483	24.810000	0.213700
0.025494	24.810000	0.213700
0.025506	24.810000	0.213700
0.025517	24.810000	0.213700
0.025528	24.810000	0.214000
0.025540	24.810000	0.214000
0.025552	24.810000	0.214000
0.025563	24.810000	0.214200
0.025575	24.810000	0.214200
0.025586	24.810000	0.214100
0.025598	24.810000	0.214100
0.025610	24.810000	0.214100
0.025621	24.810000	0.214900
0.025633	24.810000	0.214900
0.025644	24.810000	0.214900
0.025656	24.810000	0.214900
0.025667	24.740000	0.215600
0.025679	24.740000	0.215600
0.025691	24.740000	0.215600
0.025702	24.810000	0.217300
0.025714	24.810000	0.217300
0.025725	24.810000	0.217300
0.025737	24.810000	0.216700
0.025749	24.810000	0.216700
0.025760	24.810000	0.216100
0.025772	24.810000	0.216100
0.025784	24.810000	0.216100
0.025796	24.740000	0.215900
0.025807	24.740000	0.215900
0.025818	24.740000	0.215900
0.025830	24.740000	0.215900
0.025842	24.740000	0.215800
0.025853	24.740000	0.215800
0.025865	24.740000	0.215800
0.025876	24.810000	0.216500
0.025888	24.810000	0.216500
0.025900	24.810000	0.215600
0.025911	24.810000	0.215600
0.025923	24.810000	0.215600
0.025934	24.810000	0.216300
0.025946	24.810000	0.216300
0.025958	24.810000	0.216300
0.025969	24.810000	0.215400
0.025981	24.810000	0.215400
0.025992	24.810000	0.215400
0.026004	24.810000	0.215400
0.026016	24.740000	0.214400
0.026027	24.740000	0.214400
0.026039	24.740000	0.214400
0.026050	24.740000	0.214300
0.026062	24.740000	0.214300
0.026074	24.740000	0.214000
0.026085	24.740000	0.214000
0.026097	24.740000	0.214000
0.026108	24.810000	0.214100
0.026120	24.810000	0.214100
0.026132	24.810000	0.214100
0.026143	24.740000	0.213700
0.026155	24.740000	0.213700
0.026166	24.740000	0.213700
0.026178	24.740000	0.213700
0.026189	24.810000	0.213300
0.026201	24.810000	0.213300
0.026213	24.740000	0.213300
0.026224	24.740000	0.213200
0.026236	24.740000	0.213200
0.026247	24.740000	0.213600
0.026259	24.740000	0.213600
0.026270	24.740000	0.213600
0.026282	24.810000	0.214800
0.026294	24.810000	0.214800
0.026306	24.810000	0.214800
0.026317	24.810000	0.214800
0.026329	24.740000	0.214700
0.026340	24.740000	0.214700
0.026352	24.740000	0.214700
0.026363	24.740000	0.215100
0.026375	24.740000	0.215100
0.026386	24.670000	0.214300
0.026398	24.670000	0.214300
0.026410	24.670000	0.214300
0.026421	24.740000	0.214200
0.026433	24.740000	0.214200
0.026444	24.740000	0.214200
0.026456	24.810000	0.214300
0.026467	24.810000	0.214300
0.026479	24.810000	0.214300
0.026491	24.810000	0.214300
0.026502	24.740000	0.214700
0.026514	24.740000	0.214700
0.026525	24.740000	0.214700
0.026537	24.810000	0.215800
0.026548	24.810000	0.215800
0.026560	24.810000	0.216100
0.026572	24.810000	0.216100
0.026583	24.810000	0.216100
0.026595	24.740000	0.218300
0.026606	24.740000	0.218300
0.026618	24.740000	0.218300
0.026630	24.740000	0.220000
0.026641	24.740000	0.220000
0.026653	24.740000	0.220000
0.026664	24.740000	0.220000
0.026676	24.810000	0.217600
0.026687	24.810000	0.217600
0.026699	24.810000	0.217600
0.026711	24.740000	0.216400
0.026722	24.740000	0.216400
0.026734	24.810000	0.215000
0.026745	24.810000	0.215000
0.026757	24.810000	0.215000
0.026769	24.740000	0.215000
0.026780	24.740000	0.215000
0.026792	24.740000	0.215000
0.026803	24.810000	0.215300
0.026815	24.810000	0.215300
0.026827	24.810000	0.215300
0.026838	24.810000	0.215300
0.026850	24.810000	0.214400
0.026862	24.810000	0.214400
0.026873	24.740000	0.214400
0.026885	24.740000	0.215100
0.026896	24.740000	0.215100
0.026908	24.810000	0.215500
0.026920	24.810000	0.215500
0.026932	24.810000	0.215500
0.026943	24.810000	0.216400
0.026955	24.810000	0.216400
0.026966	24.810000	0.216400
0.026978	24.810000	0.216700
0.026990	24.810000	0.216700
0.027001	24.810000	0.216700
0.027013	24.810000	0.216700
0.027025	24.810000	0.216000
0.027036	24.810000	0.216000
0.027048	24.810000	0.215200
0.027059	24.810000	0.215200
0.027071	24.810000	0.215200
0.027082	24.890000	0.216100
0.027094	24.890000	0.216100
0.027106	24.890000	0.216100
0.027117	24.810000	0.214500
0.027129	24.810000	0.214500
0.027140	24.810000	0.214500
0.027152	24.810000	0.214500
0.027163	24.810000	0.214500
0.027175	24.810000	0.214500
