#Measurement data
#2022-09-18 17:28:48

#Time (days)	Power (W)	Current (A)
0.00001780	0.210000	0.017300
0.00003069	0.210000	0.017400
0.00004230	0.210000	0.017400
0.00005394	0.210000	0.017400
0.00006560	0.210000	0.017400
0.00007701	0.210000	0.017400
0.00008863	0.210000	0.017400
0.00010017	0.350000	0.018000
0.00011175	0.350000	0.018000
0.00012339	0.350000	0.018000
0.00013491	0.210000	0.017400
0.00014653	0.210000	0.017400
0.00015804	0.210000	0.017400
0.00016969	0.210000	0.017400
0.00018127	0.210000	0.017400
0.00019277	0.210000	0.017400
0.00020433	0.210000	0.017200
0.00021596	0.210000	0.017200
0.00022745	0.210000	0.017200
0.00023918	0.210000	0.017200
0.00025065	0.280000	0.017400
0.00026303	0.280000	0.017400
0.00027382	0.280000	0.017500
0.00028547	0.280000	0.017500
0.00029696	0.280000	0.017500
0.00030847	0.210000	0.017300
0.00032012	0.210000	0.017300
0.00033169	0.210000	0.017300
0.00034329	0.210000	0.017200
0.00035480	0.210000	0.017200
0.00036638	0.210000	0.017200
0.00037802	0.210000	0.017200
0.00038951	0.210000	0.017200
0.00040119	0.210000	0.017200
0.00041270	0.210000	0.017200
0.00042457	28.030000	0.223000
0.00043584	28.030000	0.223000
0.00044750	29.250000	0.232400
0.00045907	29.250000	0.232400
0.00047053	29.250000	0.232400
0.00048219	29.610000	0.234600
0.00049370	29.610000	0.234600
0.00050534	29.610000	0.234600
0.00051697	29.180000	0.231200
0.00052843	29.180000	0.231200
0.00054000	29.180000	0.231200
0.00055161	29.180000	0.231200
0.00056323	29.460000	0.234800
0.00057475	29.460000	0.234800
0.00058690	29.460000	0.234800
0.00059824	29.180000	0.232600
0.00061014	29.180000	0.232600
0.00062116	29.390000	0.236500
0.00063318	29.390000	0.236500
0.00064416	29.390000	0.236500
0.00065572	29.390000	0.234900
0.00066729	29.390000	0.234900
0.00067896	29.390000	0.234900
0.00069050	29.460000	0.234800
0.00070208	29.460000	0.234800
0.00071362	29.460000	0.234800
0.00072519	29.460000	0.234800
0.00073672	29.250000	0.232300
0.00074834	29.250000	0.232300
0.00076009	29.250000	0.232300
0.00077145	29.320000	0.233600
0.00078306	29.320000	0.233600
0.00079470	29.390000	0.233400
0.00080623	29.390000	0.233400
0.00081791	29.390000	0.233400
0.00082934	29.390000	0.232600
0.00084095	29.390000	0.232600
0.00085245	29.390000	0.232600
0.00086411	29.460000	0.234700
0.00087571	29.460000	0.234700
0.00088728	29.460000	0.234700
0.00089880	29.460000	0.234700
0.00091042	29.610000	0.234700
0.00092189	29.610000	0.234700
0.00093358	29.180000	0.232200
0.00094515	29.180000	0.232200
0.00095670	29.180000	0.232200
0.00096824	29.250000	0.231600
0.00097993	29.250000	0.231600
0.00099142	29.250000	0.231600
0.00100296	28.610000	0.226600
0.00101450	28.610000	0.226600
0.00102618	28.610000	0.226600
0.00103773	28.610000	0.226600
0.00104929	28.390000	0.226600
0.00106086	28.390000	0.226600
0.00107240	28.390000	0.226600
0.00108400	28.460000	0.226200
0.00109560	28.460000	0.226200
0.00110716	28.460000	0.226200
0.00111874	28.460000	0.226200
0.00113032	28.460000	0.226200
0.00114192	27.820000	0.225200
0.00115346	27.820000	0.225200
0.00116506	27.820000	0.225200
0.00117656	27.820000	0.223400
0.00118814	27.820000	0.223400
0.00119973	27.820000	0.223400
0.00121137	27.820000	0.223400
0.00122291	27.820000	0.224300
0.00123447	27.820000	0.224300
0.00124605	27.820000	0.224300
0.00125767	27.890000	0.227300
0.00126916	27.890000	0.227300
0.00128076	27.820000	0.226400
0.00129231	27.820000	0.226400
0.00130387	27.820000	0.226400
0.00131547	27.820000	0.223900
0.00132704	27.820000	0.223900
0.00133862	27.820000	0.223900
0.00135016	27.820000	0.223300
0.00136179	27.820000	0.223300
0.00137347	27.820000	0.223300
0.00138487	27.820000	0.223300
0.00139648	27.750000	0.221300
0.00140814	27.750000	0.221300
0.00141965	27.960000	0.221300
0.00143120	27.960000	0.223700
0.00144284	27.960000	0.223700
0.00145434	27.750000	0.226900
0.00146594	27.750000	0.226900
0.00147753	27.750000	0.226900
0.00148907	27.890000	0.224300
0.00150068	27.890000	0.224300
0.00151219	27.890000	0.224300
0.00152383	27.960000	0.225400
0.00153538	27.960000	0.225400
0.00154698	27.960000	0.225400
0.00155862	27.960000	0.225400
0.00157015	27.680000	0.221800
0.00158168	27.680000	0.221800
0.00159328	28.100000	0.225500
0.00160493	28.100000	0.225500
0.00161642	28.100000	0.225500
0.00162795	27.820000	0.223800
0.00163954	27.820000	0.223800
0.00165119	27.820000	0.223800
0.00166264	28.100000	0.226100
0.00167440	28.100000	0.226100
0.00168586	28.100000	0.226100
0.00169744	28.100000	0.226100
0.00170900	27.820000	0.222500
0.00172054	27.820000	0.222500
0.00173213	27.820000	0.222500
0.00174373	27.820000	0.223700
0.00175531	27.820000	0.223700
0.00176682	27.750000	0.221600
0.00177844	27.750000	0.221600
0.00179007	27.750000	0.221600
0.00180161	27.960000	0.223400
0.00181318	27.960000	0.223400
0.00182468	27.960000	0.223400
0.00183625	27.960000	0.223400
0.00184800	27.960000	0.223400
0.00185948	27.960000	0.223400
0.00187105	27.960000	0.223400
0.00188262	27.820000	0.221300
0.00189416	27.820000	0.221300
0.00190574	27.820000	0.221300
0.00191733	28.890000	0.230900
0.00192892	28.890000	0.230900
0.00194047	29.110000	0.232900
0.00195204	29.110000	0.232900
0.00196362	29.110000	0.232900
0.00197538	28.320000	0.226000
0.00198676	28.320000	0.226000
0.00199834	28.320000	0.226000
0.00200988	27.960000	0.224100
0.00202155	27.960000	0.224100
0.00203313	27.960000	0.224100
0.00204463	27.960000	0.224100
0.00205623	28.960000	0.232100
0.00206778	28.960000	0.232100
0.00207936	27.530000	0.221200
0.00209105	27.530000	0.221200
0.00210245	27.530000	0.221200
0.00211407	27.960000	0.223700
0.00212569	27.960000	0.223700
0.00213726	27.960000	0.223700
0.00214875	27.820000	0.226000
0.00216093	27.820000	0.226000
0.00217198	27.820000	0.226000
0.00218353	27.530000	0.223700
0.00219509	27.530000	0.223700
0.00220667	27.530000	0.223700
0.00221821	27.530000	0.223700
0.00222988	28.750000	0.230700
0.00224137	28.750000	0.230700
0.00225296	28.250000	0.226900
0.00226458	28.250000	0.226900
0.00227613	28.250000	0.226900
0.00228774	28.250000	0.227400
0.00229927	28.250000	0.227400
0.00231088	28.250000	0.227400
0.00232240	27.960000	0.224300
0.00233400	27.960000	0.224300
0.00234557	27.960000	0.224300
0.00235714	27.960000	0.224300
0.00236880	28.320000	0.228400
0.00238030	28.320000	0.228400
0.00239189	28.320000	0.228400
0.00240341	28.100000	0.226200
0.00241507	28.100000	0.226200
0.00242660	28.610000	0.229500
0.00243816	28.610000	0.229500
0.00244972	28.610000	0.229500
0.00246131	28.610000	0.229100
0.00247284	28.610000	0.229100
0.00248446	28.610000	0.229100
0.00249632	28.680000	0.230000
0.00250767	28.680000	0.230000
0.00251919	28.680000	0.230000
0.00253079	28.680000	0.230000
0.00254235	28.530000	0.229800
0.00255397	28.530000	0.229800
0.00256549	28.530000	0.229800
0.00257707	28.530000	0.229800
0.00258866	28.530000	0.229800
0.00260016	28.820000	0.230600
0.00261178	28.820000	0.230600
0.00262334	28.820000	0.230600
0.00263495	29.180000	0.234000
0.00264650	29.180000	0.234000
0.00265803	29.180000	0.234000
0.00266966	28.890000	0.231600
0.00268130	28.890000	0.231600
0.00269284	28.890000	0.231600
0.00270497	28.890000	0.231600
0.00271604	28.460000	0.230600
0.00272752	28.460000	0.230600
0.00273941	28.530000	0.230800
0.00275061	28.530000	0.230800
0.00276220	28.530000	0.230800
0.00277383	28.680000	0.231400
0.00278536	28.680000	0.231400
0.00279700	28.680000	0.231400
0.00280865	28.390000	0.229500
0.00282006	28.390000	0.229500
0.00283163	28.390000	0.229500
0.00284325	28.390000	0.229500
0.00285487	28.610000	0.230400
0.00286652	28.610000	0.230400
0.00287794	28.610000	0.230400
0.00288956	28.680000	0.229800
0.00290112	28.680000	0.229800
0.00291270	28.460000	0.228500
0.00292426	28.460000	0.228500
0.00293584	28.460000	0.228500
0.00294743	28.320000	0.226400
0.00295902	28.320000	0.226400
0.00297058	28.320000	0.226400
0.00298213	28.250000	0.227000
0.00299368	28.250000	0.227000
0.00300534	28.250000	0.227000
0.00301703	28.250000	0.227000
0.00302845	28.320000	0.227000
0.00303997	28.320000	0.227000
0.00305153	28.100000	0.227000
0.00306359	28.100000	0.228000
0.00307488	28.100000	0.228000
0.00308624	28.750000	0.232300
0.00309788	28.750000	0.232300
0.00310958	28.750000	0.232300
0.00312098	28.460000	0.230500
0.00313262	28.460000	0.230500
0.00314422	28.460000	0.230500
0.00315574	28.250000	0.227800
0.00316735	28.250000	0.227800
0.00317890	28.250000	0.227800
0.00319045	28.250000	0.227800
0.00320205	28.460000	0.227500
0.00321365	28.460000	0.227500
0.00322531	28.180000	0.226200
0.00323678	28.180000	0.226200
0.00324942	28.180000	0.226200
0.00325993	28.460000	0.228400
0.00327146	28.460000	0.228400
0.00328307	28.460000	0.228400
0.00329461	28.460000	0.228400
0.00330624	28.460000	0.228400
0.00331778	28.460000	0.228400
0.00332941	28.460000	0.228900
0.00334095	28.460000	0.228900
0.00335257	28.460000	0.228900
0.00336410	28.460000	0.228900
0.00337564	28.320000	0.228100
0.00338737	28.320000	0.228100
0.00339881	28.320000	0.226400
0.00341041	28.320000	0.226400
0.00342193	28.320000	0.226400
0.00343356	28.320000	0.225400
0.00344510	28.320000	0.225400
0.00345669	28.320000	0.225400
0.00346837	28.750000	0.228700
0.00347980	28.750000	0.228700
0.00349139	28.750000	0.228700
0.00350300	28.750000	0.228700
0.00351450	28.750000	0.229300
0.00352612	28.750000	0.229300
0.00353771	28.750000	0.229300
0.00354922	28.180000	0.226000
0.00356081	28.180000	0.226000
0.00357273	28.250000	0.226600
0.00358395	28.250000	0.226600
0.00359551	28.250000	0.226600
0.00360715	28.250000	0.226500
0.00361865	28.250000	0.226500
0.00363029	28.250000	0.226500
0.00364185	28.390000	0.227000
0.00365345	28.390000	0.227000
0.00366498	28.390000	0.227000
0.00367654	28.390000	0.227000
0.00368813	28.390000	0.227400
0.00369973	28.390000	0.227400
0.00371134	28.390000	0.227400
0.00372284	28.250000	0.226800
0.00373442	28.250000	0.226800
0.00374600	28.100000	0.226200
0.00375757	28.100000	0.226200
0.00376924	28.100000	0.226200
0.00378067	28.100000	0.225400
0.00379345	28.100000	0.225400
0.00380384	28.100000	0.225400
0.00381546	28.390000	0.226700
0.00382705	28.390000	0.226700
0.00383860	28.390000	0.226700
0.00385013	28.390000	0.226700
0.00386170	28.530000	0.227800
0.00387334	28.530000	0.227800
0.00388490	28.250000	0.225800
0.00389649	28.250000	0.225800
0.00390810	28.250000	0.225800
0.00391959	28.390000	0.226900
0.00393117	28.390000	0.226900
0.00394277	28.390000	0.226900
0.00395435	28.100000	0.225700
0.00396597	28.100000	0.225700
0.00397744	28.100000	0.225700
0.00398911	28.180000	0.226900
0.00400072	28.180000	0.226900
0.00401221	28.180000	0.226900
0.00402380	28.180000	0.226900
0.00403541	28.180000	0.226900
0.00404705	28.180000	0.226900
0.00405862	28.320000	0.227600
0.00407008	28.320000	0.227600
0.00408192	28.320000	0.227600
0.00409322	28.820000	0.232200
0.00410483	28.820000	0.232200
0.00411639	28.820000	0.232200
0.00412796	28.460000	0.229100
0.00413950	28.460000	0.229100
0.00415159	28.460000	0.229100
0.00416272	28.460000	0.229100
0.00417426	28.390000	0.227700
0.00418587	28.390000	0.227700
0.00419744	28.390000	0.227700
0.00420899	28.030000	0.225000
0.00422054	28.030000	0.225000
0.00423214	27.960000	0.226100
0.00424380	27.960000	0.226100
0.00425527	27.960000	0.226100
0.00426686	28.610000	0.229700
0.00427836	28.610000	0.229700
0.00429000	28.610000	0.229700
0.00430156	28.390000	0.227600
0.00431322	28.390000	0.227600
0.00432480	28.390000	0.227600
0.00433627	28.390000	0.227600
0.00434785	28.030000	0.224500
0.00435956	28.030000	0.224500
0.00437104	27.960000	0.224800
0.00438259	27.960000	0.224800
0.00439417	27.960000	0.224800
0.00440576	28.890000	0.232000
0.00441734	28.890000	0.232000
0.00442884	28.890000	0.232000
0.00444044	28.250000	0.226600
0.00445204	28.250000	0.226600
0.00446368	28.250000	0.226600
0.00447520	28.680000	0.229400
0.00448689	28.680000	0.229400
0.00449832	28.680000	0.229400
0.00451016	28.680000	0.229400
0.00452147	28.320000	0.228200
0.00453311	28.320000	0.228200
0.00454475	28.320000	0.228000
0.00455627	28.320000	0.228000
0.00456786	28.320000	0.228000
0.00457935	28.680000	0.230100
0.00459098	28.680000	0.230100
0.00460256	28.680000	0.230100
0.00461409	28.530000	0.228800
0.00462572	28.530000	0.228800
0.00463725	28.530000	0.228800
0.00464883	28.680000	0.229000
0.00466041	28.680000	0.229000
0.00467194	28.680000	0.229000
0.00468353	28.680000	0.229000
0.00469512	28.390000	0.226600
0.00470663	28.390000	0.226600
0.00471829	28.680000	0.229900
0.00472980	28.680000	0.229900
0.00474146	28.680000	0.229900
0.00475296	28.680000	0.229900
0.00476455	28.680000	0.229900
0.00477619	28.680000	0.229900
0.00478769	28.530000	0.227500
0.00479931	28.530000	0.227500
0.00481086	28.530000	0.227500
0.00482249	28.530000	0.227500
0.00483399	28.320000	0.226900
0.00484563	28.320000	0.226900
0.00485723	28.320000	0.226900
0.00486868	28.390000	0.227100
0.00488032	28.390000	0.227100
0.00489190	27.600000	0.221300
0.00490347	27.600000	0.221300
0.00491501	27.600000	0.221300
0.00492663	28.460000	0.228300
0.00493824	28.460000	0.228300
0.00494976	28.460000	0.228300
0.00496138	28.180000	0.225600
0.00497286	28.180000	0.225600
0.00498444	28.180000	0.225600
0.00499603	28.180000	0.225600
0.00500764	28.250000	0.225200
0.00501941	28.250000	0.225200
0.00503084	29.110000	0.225200
0.00504235	29.110000	0.230900
0.00505389	29.110000	0.230900
0.00506554	28.530000	0.227000
0.00507708	28.530000	0.227000
0.00508860	28.530000	0.227000
0.00510022	28.820000	0.230300
0.00511177	28.820000	0.230300
0.00512339	28.820000	0.230300
0.00513488	29.030000	0.232100
0.00514656	29.030000	0.232100
0.00515811	29.030000	0.232100
0.00516966	29.030000	0.232100
0.00518124	28.820000	0.230300
0.00519362	28.820000	0.230300
0.00520439	29.030000	0.233500
0.00521588	29.030000	0.233500
0.00522751	29.030000	0.233500
0.00523906	28.890000	0.231700
0.00525156	28.890000	0.231700
0.00526234	28.890000	0.231700
0.00527390	29.250000	0.233000
0.00528553	29.250000	0.233000
0.00529707	29.250000	0.233000
0.00530866	29.250000	0.233000
0.00532009	28.820000	0.230500
0.00533171	28.820000	0.230500
0.00534329	28.820000	0.230500
0.00535485	28.180000	0.225400
0.00536641	28.180000	0.225400
0.00537833	28.460000	0.226800
0.00538950	28.460000	0.226800
0.00540111	28.460000	0.226800
0.00541272	28.460000	0.229000
0.00542432	28.460000	0.229000
0.00543587	28.460000	0.229000
0.00544755	28.680000	0.230700
0.00545904	28.680000	0.230700
0.00547061	28.680000	0.230700
0.00548214	28.680000	0.230700
0.00549372	28.680000	0.230700
0.00550528	28.680000	0.230700
0.00551684	27.960000	0.230700
0.00552845	27.960000	0.224500
0.00554007	27.960000	0.224500
0.00555161	28.610000	0.229900
0.00556319	28.610000	0.229900
0.00557477	28.610000	0.229900
0.00558638	28.530000	0.230400
0.00559785	28.530000	0.230400
0.00560943	28.530000	0.230400
0.00562105	28.390000	0.231500
0.00563263	28.390000	0.231500
0.00564422	28.390000	0.231500
0.00565580	28.390000	0.231500
0.00566734	28.610000	0.231700
0.00567914	28.610000	0.231700
0.00569046	28.530000	0.230100
0.00570206	28.530000	0.230100
0.00571359	28.530000	0.230100
0.00572517	28.460000	0.227600
0.00573687	28.460000	0.227600
0.00574837	28.460000	0.227600
0.00575992	28.680000	0.228100
0.00577157	28.680000	0.228100
0.00578309	28.680000	0.228100
0.00579472	28.610000	0.227300
0.00580620	28.610000	0.227300
0.00581788	28.610000	0.227300
0.00582942	28.610000	0.227300
0.00584095	28.750000	0.228300
0.00585253	28.750000	0.228300
0.00586410	28.250000	0.224900
0.00587567	28.250000	0.224900
0.00588722	28.250000	0.224900
0.00589880	28.250000	0.225900
0.00591041	28.250000	0.225900
0.00592200	28.250000	0.225900
0.00593378	28.390000	0.226200
0.00594515	28.390000	0.226200
0.00595711	28.390000	0.226200
0.00596823	28.460000	0.226800
0.00597983	28.460000	0.226800
0.00599149	28.460000	0.226800
0.00600296	28.460000	0.226800
0.00601453	28.390000	0.226800
0.00602608	28.390000	0.226800
0.00603767	28.250000	0.224300
0.00604932	28.250000	0.224300
0.00606082	28.250000	0.224300
0.00607242	28.250000	0.224000
0.00608400	28.250000	0.224000
0.00609554	28.250000	0.224000
0.00610714	28.390000	0.224800
0.00611877	28.390000	0.224800
0.00613028	28.390000	0.224800
0.00614186	28.390000	0.224800
0.00615346	28.390000	0.226000
0.00616505	28.390000	0.226000
0.00617661	28.390000	0.226000
0.00618818	28.390000	0.230000
0.00619969	28.390000	0.230000
0.00621133	28.390000	0.230000
0.00622295	28.390000	0.230000
0.00623453	28.390000	0.230000
0.00624602	28.530000	0.229100
0.00625758	28.530000	0.229100
0.00626919	28.530000	0.229100
0.00628175	28.610000	0.229200
0.00629234	28.610000	0.229200
0.00630392	28.610000	0.229200
0.00631556	28.610000	0.229200
0.00632705	28.530000	0.228200
0.00633861	28.530000	0.228200
0.00635021	28.820000	0.230400
0.00636174	28.820000	0.230400
0.00637334	28.820000	0.230400
0.00638494	28.390000	0.227900
0.00639648	28.390000	0.227900
0.00640815	28.390000	0.227900
0.00641959	28.460000	0.227900
0.00643127	28.460000	0.227900
0.00644287	28.460000	0.227900
0.00645439	27.460000	0.222100
0.00646597	27.460000	0.222100
0.00647756	27.460000	0.222100
0.00648907	27.460000	0.222100
0.00650067	27.530000	0.221200
0.00651218	27.530000	0.221200
0.00652381	28.180000	0.227500
0.00653542	28.180000	0.227500
0.00654700	28.180000	0.227500
0.00655858	28.250000	0.228500
0.00657014	28.250000	0.228500
0.00658164	28.250000	0.228500
0.00659324	28.460000	0.229800
0.00660479	28.460000	0.229800
0.00661650	28.460000	0.229800
0.00662795	28.390000	0.227000
0.00663962	28.390000	0.227000
0.00665110	28.390000	0.227000
0.00666274	28.390000	0.227000
0.00667427	28.390000	0.227500
0.00668591	28.390000	0.227500
0.00669741	28.320000	0.227000
0.00670896	28.320000	0.227000
0.00672059	28.320000	0.227000
0.00673245	28.390000	0.226600
0.00674370	28.390000	0.226600
0.00675531	28.390000	0.226600
0.00676682	28.750000	0.228500
0.00677845	28.750000	0.228500
0.00679005	28.750000	0.228500
0.00680161	28.750000	0.228500
0.00681321	28.610000	0.227600
0.00682584	28.610000	0.227600
0.00683632	28.680000	0.227600
0.00684786	28.680000	0.229700
0.00685947	28.680000	0.229700
0.00687110	28.250000	0.227600
0.00688259	28.250000	0.227600
0.00689417	28.250000	0.227600
0.00690578	28.390000	0.227200
0.00691735	28.390000	0.227200
0.00692891	28.390000	0.227200
0.00694047	28.390000	0.227200
0.00695206	28.390000	0.227200
0.00696360	28.390000	0.227200
0.00697522	28.390000	0.227200
0.00698687	28.390000	0.226400
0.00699834	28.390000	0.226400
0.00700991	28.610000	0.227400
0.00702148	28.610000	0.227400
0.00703307	28.610000	0.227400
0.00704468	29.030000	0.231300
0.00705618	29.030000	0.231300
0.00706782	29.030000	0.231300
0.00707941	28.680000	0.229300
0.00709088	28.680000	0.229300
0.00710250	28.680000	0.229300
0.00711409	28.820000	0.230700
0.00712574	28.820000	0.230700
0.00713731	28.820000	0.230700
0.00714882	28.820000	0.230700
0.00716047	28.610000	0.230100
0.00717190	28.610000	0.230100
0.00718363	28.680000	0.232600
0.00719513	28.680000	0.232600
0.00720671	28.680000	0.232600
0.00721823	28.610000	0.229700
0.00722985	28.610000	0.229700
0.00724142	28.610000	0.229700
0.00725296	29.540000	0.236100
0.00726454	29.540000	0.236100
0.00727634	29.540000	0.236100
0.00728773	29.540000	0.236100
0.00729926	29.320000	0.233000
0.00731081	29.320000	0.233000
0.00732247	29.320000	0.233000
0.00733395	28.890000	0.231600
0.00734549	28.890000	0.231600
0.00735715	28.320000	0.226800
0.00736869	28.320000	0.226800
0.00738031	28.320000	0.226800
0.00739185	28.680000	0.230700
0.00740338	28.680000	0.230700
0.00741498	28.680000	0.230700
0.00742653	28.530000	0.230100
0.00743818	28.530000	0.230100
0.00744976	28.530000	0.230100
0.00746128	28.530000	0.230100
0.00747294	28.610000	0.230400
0.00748443	28.610000	0.230400
0.00749602	28.320000	0.229000
0.00750758	28.320000	0.229000
0.00751916	28.320000	0.229000
0.00753071	28.610000	0.230800
0.00754231	28.610000	0.230800
0.00755394	28.610000	0.230800
0.00756547	28.680000	0.233300
0.00757704	28.680000	0.233300
0.00758885	28.680000	0.233300
0.00760097	28.460000	0.230300
0.00761205	28.460000	0.230300
0.00762390	28.460000	0.230300
0.00763574	28.460000	0.230300
0.00764650	28.390000	0.230500
0.00765858	28.390000	0.230500
0.00766959	28.390000	0.230500
0.00768120	28.390000	0.230500
0.00769274	28.390000	0.230500
0.00770434	28.680000	0.231500
0.00771595	28.680000	0.231500
0.00772745	28.680000	0.231500
0.00773900	28.610000	0.231500
0.00775068	28.610000	0.231500
0.00776226	28.610000	0.231500
0.00777378	28.390000	0.227900
0.00778531	28.390000	0.227900
0.00779691	28.390000	0.227900
0.00780853	28.390000	0.227900
0.00782019	28.250000	0.226900
0.00783164	28.250000	0.226900
0.00784324	28.610000	0.227200
0.00785476	28.610000	0.227200
0.00786635	28.610000	0.227200
0.00787795	28.320000	0.223100
0.00788955	28.320000	0.223100
0.00790104	28.320000	0.223100
0.00791265	28.320000	0.224700
0.00792421	28.320000	0.224700
0.00793579	28.320000	0.224700
0.00794742	28.320000	0.224700
0.00795902	28.460000	0.227500
0.00797064	28.460000	0.227500
0.00798212	28.460000	0.227500
0.00799372	28.390000	0.227300
0.00800530	28.390000	0.227300
0.00801687	28.320000	0.226200
0.00802837	28.320000	0.226200
0.00804025	28.320000	0.226200
0.00805167	27.460000	0.223700
0.00806311	27.460000	0.223700
0.00807473	27.460000	0.223700
0.00808633	27.250000	0.219800
0.00809791	27.250000	0.219800
0.00811035	27.250000	0.219800
0.00812106	27.250000	0.219800
0.00813258	28.320000	0.226400
0.00814422	28.320000	0.226400
0.00815575	27.750000	0.223200
0.00816736	27.750000	0.223200
0.00817898	27.750000	0.223200
0.00819054	7.220000	0.074900
0.00820218	7.220000	0.074900
0.00821372	7.220000	0.074900
0.00822515	4.430000	0.053000
0.00823676	4.430000	0.053000
0.00824829	4.430000	0.053000
0.00825992	0.210000	0.018100
0.00827161	0.210000	0.018100
0.00828308	0.210000	0.018100
0.00829480	0.210000	0.018100
0.00830625	0.210000	0.018200
0.00831780	0.210000	0.018200
0.00832937	0.210000	0.018300
0.00834093	0.210000	0.018300
0.00835255	0.210000	0.018300
0.00836411	0.350000	0.018600
0.00837572	0.350000	0.018600
0.00838727	0.350000	0.018600
0.00839877	0.350000	0.018600
0.00841044	0.350000	0.018600
0.00842199	0.350000	0.018600
0.00843354	0.210000	0.018500
0.00844515	0.210000	0.018500
0.00845676	0.210000	0.018500
0.00846819	0.210000	0.018500
0.00847979	0.210000	0.018400
0.00849146	0.210000	0.018400
0.00850300	0.280000	0.018400
0.00851451	0.280000	0.018400
0.00852619	0.280000	0.018400
0.00853780	0.210000	0.018500
0.00854929	0.210000	0.018500
0.00856091	0.210000	0.018500
